Time (s),Shift (nm)
0.0,0.0
0.2000000000000454,0.0002369999999998
0.4000000000000341,0.0024889999999999
0.6000000000000227,0.0048899999999998
0.8000000000000114,0.0065739999999998
1.0,0.0076399999999998
1.2000000000000457,0.0087589999999999
1.400000000000034,0.0104769999999998
1.6000000000000227,0.0128629999999998
1.8000000000000114,0.0152029999999998
2.0,0.0171779999999999
2.200000000000045,0.0174639999999999
2.400000000000034,0.0155079999999998
2.6000000000000227,0.0132889999999998
2.800000000000012,0.0114399999999998
3.0,0.0105609999999998
3.200000000000045,0.0098319999999998
3.400000000000034,0.010224
3.6000000000000227,0.0104049999999999
3.8000000000000114,0.0115999999999998
4.0,0.0120169999999999
4.2000000000000455,0.0130629999999998
4.400000000000034,0.0149459999999999
4.600000000000023,0.0156269999999998
4.800000000000011,0.0159039999999999
5.0,0.0154949999999998
5.2000000000000455,0.0163369999999998
5.400000000000034,0.0153559999999999
5.600000000000023,0.0145569999999999
5.800000000000011,0.0138949999999999
6.0,0.0133859999999998
6.2000000000000455,0.0113859999999998
6.400000000000034,0.011131
6.600000000000023,0.0125709999999998
6.800000000000011,0.013884
7.0,0.0144639999999998
7.2000000000000455,0.0146169999999998
7.400000000000034,0.0115609999999999
7.600000000000023,0.0071579999999999
7.800000000000011,0.0043369999999998
8.0,0.0038219999999999
8.200000000000045,0.0052959999999999
8.400000000000034,0.0090999999999998
8.600000000000023,0.0142799999999998
8.800000000000011,0.0166919999999999
9.0,0.0171369999999999
9.200000000000044,0.015876
9.400000000000034,0.0154609999999999
9.600000000000025,0.0116049999999998
9.800000000000011,0.0085649999999999
10.0,0.0074599999999998
10.200000000000044,0.0086459999999999
10.400000000000034,0.009139
10.600000000000025,0.0110449999999999
10.800000000000011,0.012772
11.0,0.0135779999999998
11.200000000000044,0.0128659999999998
11.400000000000034,0.0113889999999998
11.600000000000025,0.0089269999999999
11.800000000000011,0.0075109999999998
12.0,0.0062689999999998
12.200000000000044,0.0060019999999998
12.400000000000034,0.0066239999999999
12.600000000000025,0.0087469999999998
12.800000000000011,0.0100089999999999
13.0,0.0097879999999999
13.200000000000044,0.0092349999999998
13.400000000000034,0.0087569999999999
13.600000000000025,0.007865
13.800000000000011,0.0070629999999998
14.0,0.0093179999999999
14.200000000000044,0.0105309999999998
14.400000000000034,0.0093799999999999
14.600000000000025,0.0088639999999999
14.800000000000011,0.0082569999999999
15.0,0.0059509999999998
15.200000000000044,0.0042459999999999
15.400000000000034,0.0046889999999999
15.600000000000025,0.0052829999999999
15.800000000000011,0.0062699999999999
16.0,0.0065809999999999
16.200000000000045,0.0072499999999999
16.400000000000034,0.0075969999999998
16.600000000000023,0.0073799999999999
16.80000000000001,0.005425
17.0,0.0041169999999999
17.200000000000045,0.0036159999999998
17.400000000000034,0.0042159999999999
17.600000000000023,0.0048189999999999
17.80000000000001,0.0070299999999998
18.0,0.0088329999999998
18.200000000000045,0.0098229999999999
18.400000000000038,0.0079709999999999
18.600000000000023,0.00766
18.80000000000001,0.007487
19.0,0.0082949999999999
19.200000000000045,0.0082189999999999
19.400000000000038,0.0102759999999999
19.600000000000023,0.0097459999999998
19.80000000000001,0.0074379999999998
20.0,0.0051989999999999
20.200000000000045,0.0033859999999998
20.400000000000038,0.0017689999999999
20.600000000000023,0.0028829999999999
20.80000000000001,0.0055339999999999
21.0,0.0068509999999999
21.200000000000045,0.0071409999999998
21.400000000000038,0.0068669999999999
21.600000000000023,0.0049089999999998
21.80000000000001,0.0025489999999999
22.0,0.0006149999999998
22.200000000000045,0.0006699999999999
22.400000000000038,0.0031309999999999
22.600000000000023,0.0054969999999998
22.80000000000001,0.0059759999999999
23.0,0.0053399999999999
23.200000000000045,0.0037579999999999
23.400000000000038,0.0003349999999999
23.600000000000023,-0.003441
23.80000000000001,-0.0047320000000001
24.0,-0.004774
24.200000000000045,-0.0036090000000001
24.400000000000038,-0.001621
24.600000000000023,0.0019039999999999
24.80000000000001,0.005722
25.0,0.0083259999999998
25.200000000000045,0.0104199999999998
25.400000000000038,0.0096989999999999
25.600000000000023,0.0075349999999998
25.80000000000001,0.0050409999999998
26.0,0.0047119999999998
26.200000000000045,0.0048409999999998
26.400000000000038,0.0058689999999999
26.600000000000023,0.0076239999999998
26.80000000000001,0.0065779999999999
27.0,0.0062579999999998
27.200000000000045,0.0042709999999999
27.400000000000038,0.0047619999999999
27.600000000000023,0.003193
27.80000000000001,0.0043869999999999
28.0,0.0043169999999999
28.200000000000045,0.0055489999999998
28.400000000000038,0.005471
28.600000000000023,0.0094429999999998
28.80000000000001,0.0142019999999998
29.0,0.0166819999999998
29.200000000000045,0.0183429999999999
29.400000000000038,0.0173979999999998
29.600000000000023,0.0145439999999998
29.80000000000001,0.0097659999999999
30.0,0.0062409999999999
30.200000000000045,0.0032029999999998
30.400000000000038,0.000707
30.600000000000023,-0.002264
30.80000000000001,-0.0035519999999999
31.0,-0.0027410000000001
31.200000000000045,-0.000623
31.400000000000038,0.001147
31.600000000000023,0.0047139999999998
31.80000000000001,0.0079599999999999
32.0,0.0100509999999998
32.200000000000045,0.0103769999999998
32.400000000000034,0.0134349999999998
32.60000000000002,0.0139769999999999
32.80000000000001,0.0118959999999999
33.0,0.0100359999999999
33.200000000000045,0.0103159999999999
33.400000000000034,0.0103059999999999
33.60000000000002,0.0088799999999999
33.80000000000001,0.0097789999999999
34.0,0.0098669999999998
34.200000000000045,0.0083439999999999
34.400000000000034,0.005201
34.60000000000002,0.0038279999999999
34.80000000000001,0.0024339999999998
35.0,0.0019389999999999
35.200000000000045,-0.0001200000000001
35.400000000000034,-0.001851
35.60000000000002,-0.001643
35.80000000000001,0.0001339999999998
36.0,0.0017539999999998
36.200000000000045,0.0036919999999998
36.400000000000034,0.0063899999999998
36.60000000000002,0.007317
36.80000000000001,0.005471
37.0,0.0024879999999998
37.200000000000045,0.0001559999999998
37.400000000000034,-0.0020999999999999
37.60000000000002,-0.0043000000000001
37.80000000000001,-0.005568
38.0,-0.005873
38.200000000000045,-0.005112
38.400000000000034,-0.00354
38.60000000000002,8.399999999997299e-05
38.80000000000001,0.0032529999999999
39.0,0.0067729999999999
39.200000000000045,0.0102799999999998
39.400000000000034,0.0118959999999999
39.60000000000002,0.0121809999999999
39.80000000000001,0.0107589999999999
40.0,0.0111159999999999
40.200000000000045,0.0116189999999998
40.400000000000034,0.0109949999999998
40.60000000000002,0.0075189999999998
40.80000000000001,0.0058479999999998
41.0,0.0037879999999999
41.200000000000045,0.0025039999999998
41.400000000000034,0.0016179999999998
41.60000000000002,0.0018029999999999
41.80000000000001,0.002186
42.0,0.000796
42.200000000000045,-0.0002730000000001
42.400000000000034,0.0010729999999998
42.60000000000002,0.0037419999999999
42.80000000000001,0.0067899999999998
43.0,0.0089559999999999
43.200000000000045,0.0102579999999998
43.400000000000034,0.0102839999999999
43.60000000000002,0.0108839999999998
43.80000000000001,0.0104489999999999
44.0,0.0102119999999998
44.200000000000045,0.0081359999999999
44.400000000000034,0.0064799999999998
44.60000000000002,0.0052319999999999
44.80000000000001,0.0040639999999998
45.0,0.0029049999999999
45.200000000000045,0.0034019999999999
45.400000000000034,0.003112
45.60000000000002,0.0022279999999998
45.80000000000001,0.0007029999999998
46.0,0.0013059999999998
46.200000000000045,0.0003439999999998
46.400000000000034,0.00139
46.60000000000002,0.0025359999999998
46.80000000000001,0.0054739999999999
47.0,0.0059609999999998
47.200000000000045,0.0079169999999999
47.400000000000034,0.0112209999999999
47.60000000000002,0.0128039999999998
47.80000000000001,0.0111289999999999
48.0,0.0104639999999998
48.200000000000045,0.0093109999999998
48.400000000000034,0.0064969999999999
48.60000000000002,0.0031699999999998
48.80000000000001,0.0045809999999999
49.0,0.0059639999999998
49.200000000000045,0.0081049999999998
49.400000000000034,0.0081749999999998
49.60000000000002,0.0090259999999999
49.80000000000001,0.0063419999999998
50.0,0.0037079999999998
50.200000000000045,0.0013589999999998
50.400000000000034,9.599999999987396e-05
50.60000000000002,-0.000485
50.80000000000001,0.0014589999999998
51.0,0.0045319999999999
51.200000000000045,0.0057639999999998
51.400000000000034,0.0055689999999999
51.60000000000002,0.0050859999999999
51.80000000000001,0.0034889999999998
52.0,0.0016709999999999
52.200000000000045,0.0004979999999998
52.400000000000034,0.0013989999999999
52.60000000000002,0.0018639999999998
52.80000000000001,0.0007969999999999
53.0,0.0006129999999999
53.200000000000045,0.0015589999999998
53.400000000000034,0.0013759999999998
53.60000000000002,0.0006549999999998
53.80000000000001,0.0003009999999998
54.0,0.000537
54.200000000000045,0.0001379999999999
54.400000000000034,0.0023809999999999
54.60000000000002,0.0033369999999999
54.80000000000001,0.0041799999999998
55.0,0.003398
55.200000000000045,0.0020449999999998
55.400000000000034,-0.000291
55.60000000000002,-8.900000000000574e-05
55.80000000000001,0.0003689999999998
56.0,0.0005269999999999
56.200000000000045,0.0012919999999998
56.400000000000034,0.002942
56.60000000000002,0.0050329999999998
56.80000000000001,0.0057719999999998
57.0,0.0051869999999998
57.200000000000045,0.0034419999999999
57.400000000000034,-0.000388
57.60000000000002,-0.004258
57.80000000000007,-0.0050450000000001
58.0,-0.004688
58.200000000000045,-0.0055010000000002
58.39999999999998,-0.0059120000000001
58.60000000000002,-0.0046019999999999
58.80000000000007,-0.00356
59.0,-0.00347
59.200000000000045,0.0003289999999998
59.39999999999998,0.004054
59.60000000000002,0.0052569999999998
59.80000000000007,0.0050169999999998
60.0,0.0051359999999998
60.200000000000045,0.0020369999999998
60.39999999999998,-0.000458
60.60000000000002,-0.001897
60.80000000000007,-0.0006330000000001
61.0,0.000545
61.200000000000045,0.0024789999999998
61.39999999999998,0.0030609999999999
61.60000000000002,0.0044159999999999
61.80000000000007,0.0030429999999999
62.0,0.002753
62.200000000000045,0.0029799999999999
62.39999999999998,0.0044159999999999
62.60000000000002,0.0036249999999999
62.80000000000007,0.0040609999999998
63.0,0.0041909999999998
63.200000000000045,0.0041769999999998
63.39999999999998,0.0045119999999998
63.60000000000002,0.0042349999999999
63.80000000000007,0.0045339999999998
64.0,0.002807
64.20000000000005,0.001649
64.39999999999998,-0.0021079999999999
64.60000000000002,-0.0044980000000001
64.80000000000007,-0.0051720000000001
65.0,-0.003757
65.20000000000005,-0.0037720000000001
65.39999999999998,-0.002755
65.60000000000002,-0.0003300000000001
65.80000000000007,0.0001479999999998
66.0,0.0005519999999998
66.20000000000005,0.0020459999999999
66.39999999999998,0.0032559999999999
66.60000000000002,0.0016159999999998
66.80000000000007,0.001236
67.0,0.0014659999999999
67.20000000000005,0.0016559999999998
67.39999999999998,0.0022699999999999
67.60000000000002,0.0057449999999998
67.80000000000007,0.0079219999999999
68.0,0.0075219999999998
68.20000000000005,0.0065679999999999
68.39999999999998,0.0059219999999999
68.60000000000002,0.0022749999999998
68.80000000000007,-0.0024300000000001
69.0,-0.005014
69.20000000000005,-0.0059489999999999
69.39999999999998,-0.0057690000000001
69.60000000000002,-0.0024060000000001
69.80000000000007,0.0011129999999999
70.0,0.0031529999999999
70.20000000000005,0.0037639999999998
70.39999999999998,0.0039599999999999
70.60000000000002,0.0039589999999998
70.80000000000007,0.0039789999999999
71.0,0.0051579999999999
71.20000000000005,0.0057139999999999
71.39999999999998,0.005139
71.60000000000002,0.0030559999999999
71.80000000000007,0.001479
72.0,0.0009409999999998
72.20000000000005,0.0003919999999999
72.39999999999998,0.0004499999999998
72.60000000000002,0.0010689999999999
72.80000000000007,0.001174
73.0,0.0011079999999998
73.20000000000005,0.0014769999999999
73.39999999999998,0.0007299999999998
73.60000000000002,0.0008139999999998
73.80000000000007,0.0015499999999999
74.0,0.0013589999999998
74.20000000000005,0.0007189999999999
74.39999999999998,-0.0001090000000001
74.60000000000002,-0.00126
74.80000000000007,-0.0021650000000001
75.0,-0.003994
75.20000000000005,-0.005697
75.39999999999998,-0.0061470000000001
75.60000000000002,-0.005497
75.80000000000007,-0.006455
76.0,-0.006016
76.20000000000005,-0.0045980000000001
76.39999999999998,-0.001668
76.60000000000002,0.0001349999999999
76.80000000000007,0.0029029999999998
77.0,0.0048279999999998
77.20000000000005,0.0063189999999999
77.39999999999998,0.0067419999999998
77.60000000000002,0.0072829999999999
77.80000000000007,0.0070819999999998
78.0,0.0054059999999998
78.20000000000005,0.0044929999999998
78.39999999999998,0.0044089999999998
78.60000000000002,0.0041769999999998
78.80000000000007,0.0041199999999999
79.0,0.0040859999999998
79.20000000000005,0.0035549999999999
79.39999999999998,0.002286
79.60000000000002,0.0014529999999999
79.80000000000007,0.0017479999999998
80.0,0.0024569999999999
80.20000000000005,0.0033779999999998
80.39999999999998,0.0033959999999999
80.60000000000002,0.0034899999999999
80.80000000000007,0.0030199999999998
81.0,0.0037189999999998
81.20000000000005,0.0036359999999999
81.39999999999998,0.0027889999999999
81.60000000000002,0.0010639999999999
81.80000000000007,-0.0006209999999999
82.0,-0.0015850000000001
82.20000000000005,-0.0031039999999999
82.39999999999998,-0.0020120000000001
82.60000000000002,-0.0007680000000001
82.80000000000007,-0.0008020000000001
83.0,-5.500000000013827e-05
83.20000000000005,0.0025939999999999
83.39999999999998,0.0031629999999998
83.60000000000002,0.003452
83.80000000000007,0.0032369999999999
84.0,0.0025349999999999
84.20000000000005,0.0021889999999999
84.39999999999998,0.0033959999999999
84.60000000000002,0.0032559999999999
84.80000000000007,0.0046139999999998
85.0,0.0050249999999998
85.20000000000005,0.0035159999999998
85.39999999999998,0.0015849999999999
85.60000000000002,0.0008279999999998
85.80000000000007,0.0007549999999998
86.0,-0.000374
86.20000000000005,-0.0015629999999999
86.39999999999998,-0.0029750000000001
86.60000000000002,-0.005112
86.80000000000007,-0.0077960000000001
87.0,-0.0091620000000001
87.20000000000005,-0.0082600000000001
87.39999999999998,-0.0051590000000001
87.60000000000002,-0.0025140000000001
87.80000000000007,0.000564
88.0,0.0042819999999998
88.20000000000005,0.0053369999999999
88.39999999999998,0.0038439999999999
88.60000000000002,0.0030149999999999
88.80000000000007,0.0038249999999999
89.0,0.0037429999999998
89.20000000000005,0.0028819999999998
89.39999999999998,0.0025129999999999
89.60000000000002,0.0023709999999999
89.80000000000007,-0.000102
90.0,-0.00242
90.20000000000005,-0.0019610000000001
90.39999999999998,-0.0025080000000001
90.60000000000002,-0.0033580000000001
90.80000000000008,-0.0034819999999999
91.0,-0.0010910000000001
91.20000000000005,-0.000293
91.39999999999998,0.00068
91.60000000000002,0.0033719999999999
91.80000000000008,0.0054049999999998
92.0,0.0051839999999998
92.20000000000005,0.004043
92.39999999999998,0.0043689999999998
92.60000000000002,0.0028479999999999
92.80000000000008,0.001101
93.0,-0.0012929999999999
93.20000000000005,-0.0027210000000001
93.39999999999998,-0.006043
93.60000000000002,-0.0083380000000001
93.80000000000008,-0.008693
94.0,-0.0085270000000001
94.20000000000005,-0.008955
94.39999999999998,-0.00801
94.60000000000002,-0.006129
94.80000000000008,-0.005362
95.0,-0.005692
95.20000000000005,-0.0035420000000001
95.39999999999998,-0.001692
95.60000000000002,-0.0022120000000001
95.80000000000008,-0.002102
96.0,-0.000631
96.20000000000005,-0.0013040000000001
96.39999999999998,-0.0017580000000001
96.60000000000002,-0.000499
96.80000000000008,0.0009149999999999
97.0,0.0005249999999998
97.20000000000005,0.0012069999999999
97.39999999999998,0.0011339999999999
97.60000000000002,0.0011179999999999
97.80000000000008,-0.000569
98.0,0.0001489999999999
98.20000000000005,0.0005359999999998
98.39999999999998,0.0022109999999999
98.60000000000002,0.002359
98.80000000000008,0.0016529999999999
99.0,0.0004989999999998
99.20000000000005,0.0013559999999999
99.39999999999998,0.0006399999999999
99.60000000000002,0.0001719999999998
99.80000000000008,0.0015669999999998
100.0,0.0018199999999999
100.20000000000005,0.0003299999999999
100.39999999999998,-0.001125
100.60000000000002,-0.0007830000000002
100.80000000000008,-0.0016610000000001
101.0,-0.00177
101.20000000000005,-0.003203
101.39999999999998,-0.0032
101.60000000000002,-0.0028529999999999
101.80000000000008,-0.0023010000000001
102.0,-0.004242
102.20000000000005,-0.003749
102.39999999999998,-0.0043220000000001
102.60000000000002,-0.006596
102.80000000000008,-0.008134
103.0,-0.0076820000000001
103.20000000000005,-0.008027
103.39999999999998,-0.0084570000000001
103.60000000000002,-0.0067909999999999
103.80000000000008,-0.0036120000000001
104.0,-0.000815
104.20000000000005,-0.0003030000000001
104.39999999999998,0.0004359999999998
104.60000000000002,0.0011719999999999
104.80000000000008,-0.0010160000000001
105.0,-0.002701
105.20000000000005,-0.001716
105.39999999999998,-0.0016
105.60000000000002,-0.004537
105.80000000000008,-0.0056830000000001
106.0,-0.0060840000000002
106.20000000000005,-0.006939
106.39999999999998,-0.0069609999999999
106.60000000000002,-0.0065440000000001
106.80000000000008,-0.0070149999999999
107.0,-0.008475
107.20000000000005,-0.009371
107.39999999999998,-0.0095150000000001
107.60000000000002,-0.0089240000000001
107.80000000000008,-0.007765
108.0,-0.006474
108.20000000000005,-0.0044330000000001
108.39999999999998,-0.004604
108.60000000000002,-0.003373
108.80000000000008,-0.0039759999999999
109.0,-0.0034740000000001
109.20000000000005,-0.0048449999999999
109.39999999999998,-0.00553
109.60000000000002,-0.006132
109.80000000000008,-0.0044589999999999
110.0,-0.003335
110.20000000000005,-0.0021390000000001
110.39999999999998,0.0007329999999998
110.60000000000002,0.002016
110.80000000000008,0.004718
111.0,0.006653
111.20000000000005,0.0087099999999999
111.39999999999998,0.0089939999999999
111.60000000000002,0.0073649999999998
111.80000000000008,0.0045819999999998
112.0,0.0018159999999998
112.20000000000005,0.000213
112.39999999999998,-0.000796
112.60000000000002,-0.0010460000000001
112.80000000000008,-0.003044
113.0,-0.004026
113.20000000000005,-0.0067989999999999
113.39999999999998,-0.0074320000000001
113.60000000000002,-0.007343
113.80000000000008,-0.007014
114.0,-0.008469
114.20000000000005,-0.0092880000000001
114.39999999999998,-0.009187
114.60000000000002,-0.008342
114.80000000000008,-0.0069640000000001
115.0,-0.0045840000000001
115.20000000000005,-0.000402
115.39999999999998,0.0009669999999999
115.60000000000002,0.0029409999999998
115.80000000000008,0.0043719999999998
116.0,0.0054639999999999
116.20000000000005,0.0040869999999999
116.39999999999998,0.0025759999999999
116.60000000000002,0.0020679999999999
116.80000000000008,0.0010279999999998
117.0,-0.001543
117.20000000000005,-0.0023250000000001
117.39999999999998,-0.0020459999999999
117.60000000000002,-0.0031480000000001
117.80000000000008,-0.0028000000000001
118.0,-0.0010000000000001
118.20000000000005,-0.000377
118.39999999999998,-0.0013210000000001
118.60000000000002,-0.0034370000000001
118.80000000000008,-0.0062490000000001
119.0,-0.0093610000000001
119.20000000000005,-0.0111800000000001
119.39999999999998,-0.0103280000000001
119.60000000000002,-0.008269
119.80000000000008,-0.0046600000000001
120.0,-0.000955
120.20000000000005,0.0011799999999999
120.39999999999998,0.0006309999999998
120.60000000000002,-0.000261
120.80000000000008,-0.0010959999999999
121.0,-0.0003600000000001
121.20000000000005,-5.900000000003125e-05
121.39999999999998,0.0014949999999998
121.60000000000002,0.0021109999999999
121.80000000000008,0.003541
122.0,0.0024799999999998
122.20000000000005,0.0036619999999998
122.39999999999998,0.0026689999999998
122.60000000000002,0.0028189999999999
122.80000000000008,0.0008809999999999
123.0,0.000985
123.20000000000005,-0.0014340000000001
123.39999999999998,-0.0023890000000001
123.60000000000002,-0.003821
123.80000000000008,-0.005846
124.0,-0.008237
124.20000000000005,-0.009813
124.39999999999998,-0.0116100000000001
124.60000000000002,-0.012169
124.80000000000008,-0.0105980000000001
125.0,-0.009409
125.20000000000005,-0.008043
125.39999999999998,-0.0063360000000001
125.60000000000002,-0.0063349999999999
125.80000000000008,-0.0066730000000001
126.0,-0.0056100000000001
126.20000000000005,-0.0044250000000001
126.39999999999998,-0.0050510000000001
126.60000000000002,-0.006159
126.80000000000008,-0.0059930000000001
127.0,-0.005651
127.20000000000005,-0.004785
127.39999999999998,-0.0034390000000001
127.60000000000002,-0.0015990000000001
127.80000000000008,-0.0027050000000001
128.0,-0.005441
128.20000000000005,-0.0065380000000001
128.39999999999998,-0.0048810000000001
128.60000000000002,-0.0033050000000001
128.80000000000007,-0.0026730000000001
129.0,-0.0015070000000001
129.20000000000005,-0.002685
129.39999999999998,-0.0043490000000001
129.60000000000002,-0.0045920000000001
129.80000000000007,-0.0037260000000001
130.0,-0.0043490000000001
130.20000000000005,-0.0047700000000001
130.39999999999998,-0.005201
130.60000000000002,-0.0057280000000001
130.80000000000007,-0.00485
131.0,-0.0038170000000001
131.20000000000005,-0.0030810000000001
131.39999999999998,-0.0031750000000001
131.60000000000002,-0.0032910000000001
131.80000000000007,-0.0056010000000001
132.0,-0.005519
132.20000000000005,-0.003991
132.39999999999998,-0.0025950000000001
132.60000000000002,-0.003702
132.80000000000007,-0.003433
133.0,-0.0047719999999999
133.20000000000005,-0.0059740000000001
133.39999999999998,-0.0079569999999999
133.60000000000002,-0.0078520000000001
133.80000000000007,-0.008007
134.0,-0.0079980000000001
134.20000000000005,-0.008145
134.39999999999998,-0.0059090000000001
134.60000000000002,-0.0035260000000001
134.80000000000007,-0.001902
135.0,-0.000777
135.20000000000005,0.0002269999999999
135.39999999999998,0.0001629999999999
135.60000000000002,-0.000763
135.80000000000007,-0.002331
136.0,-0.002391
136.20000000000005,-0.00261
136.39999999999998,-0.00255
136.60000000000002,-0.0041220000000001
136.80000000000007,-0.0054199999999999
137.0,-0.006704
137.20000000000005,-0.0075040000000001
137.39999999999998,-0.0073480000000001
137.60000000000002,-0.0060010000000001
137.80000000000007,-0.003749
138.0,-0.001657
138.20000000000005,-7.500000000004725e-05
138.39999999999998,-8.500000000011276e-05
138.60000000000002,-0.0008799999999999
138.80000000000007,-0.000358
139.0,-0.000903
139.20000000000005,-0.0024870000000001
139.39999999999998,-0.004367
139.60000000000002,-0.0029540000000001
139.80000000000007,-0.002464
140.0,-0.002769
140.20000000000005,-0.003519
140.39999999999998,-0.002917
140.60000000000002,-0.0032039999999999
140.80000000000007,-0.004326
141.0,-0.0029030000000001
141.20000000000005,-0.001524
141.39999999999998,-0.0010810000000001
141.60000000000002,-0.0016010000000001
141.80000000000007,-0.0009050000000001
142.0,-0.001956
142.20000000000005,-0.002744
142.39999999999998,-0.0055260000000001
142.60000000000002,-0.0071160000000001
142.80000000000007,-0.009041
143.0,-0.0089590000000001
143.20000000000005,-0.010232
143.39999999999998,-0.0082120000000001
143.60000000000002,-0.0061920000000001
143.80000000000007,-0.003333
144.0,-0.001794
144.20000000000005,-0.0003300000000001
144.39999999999998,-0.0007730000000001
144.60000000000002,-0.002078
144.80000000000007,-0.004294
145.0,-0.0081379999999999
145.20000000000005,-0.009622
145.39999999999998,-0.0100680000000001
145.60000000000002,-0.010169
145.80000000000007,-0.0122539999999999
146.0,-0.0127099999999999
146.20000000000005,-0.0119950000000002
146.39999999999998,-0.0105380000000001
146.60000000000002,-0.009727
146.80000000000007,-0.008164
147.0,-0.005444
147.20000000000005,-0.0049290000000001
147.39999999999998,-0.003835
147.60000000000002,-0.0028840000000001
147.80000000000007,-0.0009190000000001
148.0,-0.001784
148.20000000000005,-0.001103
148.39999999999998,-0.0029609999999999
148.60000000000002,-0.005093
148.80000000000007,-0.0078090000000001
149.0,-0.009918
149.20000000000005,-0.0126520000000001
149.39999999999998,-0.0138180000000001
149.60000000000002,-0.0133020000000001
149.80000000000007,-0.011732
150.0,-0.0110970000000001
150.20000000000005,-0.0096169999999999
150.39999999999998,-0.0091940000000001
150.60000000000002,-0.0100950000000001
150.80000000000007,-0.0105060000000001
151.0,-0.0072400000000001
151.20000000000005,-0.0046000000000001
151.39999999999998,-0.0011150000000001
151.60000000000002,0.0030479999999999
151.80000000000007,0.0059099999999998
152.0,0.0063739999999998
152.20000000000005,0.0039709999999999
152.39999999999998,0.0010529999999999
152.60000000000002,-0.001756
152.80000000000007,-0.0036690000000001
153.0,-0.0062060000000001
153.20000000000005,-0.0063650000000001
153.39999999999998,-0.0046829999999999
153.60000000000002,-0.002364
153.80000000000007,-0.002591
154.0,-0.0024000000000001
154.20000000000005,-0.002116
154.39999999999998,-0.003184
154.60000000000002,-0.005085
154.80000000000007,-0.0049540000000001
155.0,-0.0026780000000001
155.20000000000005,-0.0004239999999999
155.39999999999998,-0.000957
155.60000000000002,-0.0028810000000001
155.80000000000007,-0.0058
156.0,-0.008197
156.20000000000005,-0.0101379999999999
156.39999999999998,-0.0084650000000001
156.60000000000002,-0.00553
156.80000000000007,-0.001141
157.0,-5.100000000002325e-05
157.20000000000005,0.0003309999999998
157.39999999999998,-0.0012400000000001
157.60000000000002,-0.00228
157.80000000000007,-0.0045240000000001
158.0,-0.005608
158.20000000000005,-0.0074469999999999
158.39999999999998,-0.009104
158.60000000000002,-0.0107620000000001
158.80000000000007,-0.0105510000000001
159.0,-0.0088140000000001
159.20000000000005,-0.0082730000000001
159.39999999999998,-0.009238
159.60000000000002,-0.008949
159.80000000000007,-0.0084250000000001
160.0,-0.00797
160.20000000000005,-0.0055990000000001
160.39999999999998,-0.001233
160.60000000000002,0.0012189999999998
160.80000000000007,0.002834
161.0,0.0039559999999998
161.20000000000005,0.0043599999999999
161.39999999999998,0.0018539999999998
161.60000000000002,-0.0009130000000001
161.80000000000007,-0.002488
162.0,-0.0036740000000001
162.20000000000005,-0.0052290000000001
162.39999999999998,-0.0054910000000001
162.60000000000002,-0.004218
162.80000000000007,-0.0043190000000001
163.0,-0.0050339999999999
163.20000000000005,-0.004798
163.39999999999998,-0.0018150000000001
163.60000000000002,-0.00181
163.80000000000007,-0.003238
164.0,-0.0040550000000001
164.20000000000005,-0.00424
164.39999999999998,-0.0065890000000001
164.60000000000002,-0.008407
164.80000000000007,-0.008056
165.0,-0.0086840000000001
165.20000000000005,-0.0098409999999999
165.39999999999998,-0.0096640000000001
165.60000000000002,-0.00818
165.80000000000007,-0.007044
166.0,-0.0068570000000001
166.20000000000005,-0.0062429999999999
166.39999999999998,-0.006539
166.60000000000002,-0.0054880000000001
166.80000000000007,-0.0053469999999999
167.0,-0.0059580000000001
167.20000000000005,-0.008007
167.39999999999998,-0.008062
167.60000000000002,-0.009498
167.80000000000007,-0.0113180000000001
168.0,-0.0120390000000001
168.20000000000005,-0.011452
168.39999999999998,-0.0117530000000001
168.60000000000002,-0.0106410000000001
168.80000000000007,-0.012399
169.0,-0.0124870000000001
169.20000000000005,-0.012032
169.39999999999998,-0.0093160000000001
169.60000000000002,-0.0083170000000001
169.80000000000007,-0.0053659999999999
170.0,-0.003519
170.20000000000005,-0.0025570000000001
170.39999999999998,-0.00438
170.60000000000002,-0.0060729999999999
170.80000000000007,-0.0077170000000001
171.0,-0.0091620000000001
171.20000000000005,-0.008601
171.39999999999998,-0.0070860000000001
171.60000000000002,-0.0064239999999999
171.80000000000007,-0.0051970000000001
172.0,-0.0044630000000001
172.20000000000005,-0.005136
172.39999999999998,-0.0078440000000001
172.60000000000002,-0.0092860000000001
172.80000000000007,-0.00885
173.0,-0.0075830000000001
173.20000000000005,-0.006
173.39999999999998,-0.004385
173.60000000000002,-0.003327
173.80000000000007,-0.001854
174.0,-0.0009920000000001
174.20000000000005,-0.002286
174.39999999999998,-0.004542
174.60000000000002,-0.0057100000000001
174.80000000000007,-0.0086700000000001
175.0,-0.0129300000000001
175.20000000000005,-0.0159880000000001
175.39999999999998,-0.016183
175.60000000000002,-0.017006
175.80000000000007,-0.017414
176.0,-0.0173130000000001
176.20000000000005,-0.0144540000000001
176.39999999999998,-0.0110560000000001
176.60000000000002,-0.0082090000000001
176.80000000000007,-0.0050480000000001
177.0,-0.0002900000000001
177.20000000000005,1.899999999999125e-05
177.39999999999998,-0.0022790000000001
177.60000000000002,-0.0038310000000001
177.80000000000007,-0.005411
178.0,-0.0079310000000001
178.20000000000005,-0.010612
178.39999999999998,-0.011157
178.60000000000002,-0.0137249999999999
178.80000000000007,-0.01496
179.0,-0.0157370000000001
179.20000000000005,-0.014952
179.39999999999998,-0.0161919999999999
179.60000000000002,-0.01499
179.80000000000007,-0.0150110000000001
180.0,-0.0151800000000001
180.20000000000005,-0.0150480000000001
180.4,-0.014259
180.6,-0.0151270000000001
180.80000000000007,-0.0161490000000001
181.0,-0.016869
181.20000000000005,-0.017255
181.4,-0.0158120000000001
181.6,-0.014323
181.80000000000007,-0.012677
182.0,-0.0126920000000001
182.20000000000005,-0.0124010000000001
182.4,-0.0130750000000001
182.6,-0.01333
182.80000000000007,-0.0147760000000001
183.0,-0.014752
183.20000000000005,-0.0155180000000001
183.4,-0.016737
183.6,-0.0181200000000001
183.80000000000007,-0.0163079999999999
184.0,-0.0141200000000001
184.20000000000005,-0.0111340000000002
184.4,-0.0090940000000001
184.6,-0.0045460000000001
184.80000000000007,-0.0007570000000001
185.0,7.699999999988272e-05
185.20000000000005,0.0006459999999999
185.4,0.0022499999999998
185.6,0.0019559999999998
185.80000000000007,-0.0009799999999999
186.0,-0.0015979999999999
186.20000000000005,-0.003767
186.4,-0.0077100000000001
186.6,-0.0110460000000001
186.80000000000007,-0.01207
187.0,-0.0122820000000001
187.20000000000005,-0.0101680000000001
187.4,-0.0069750000000001
187.6,-0.005265
187.80000000000007,-0.004825
188.0,-0.0052150000000001
188.20000000000005,-0.0061550000000001
188.4,-0.007362
188.6,-0.009068
188.80000000000007,-0.01112
189.0,-0.012431
189.20000000000005,-0.0133050000000001
189.4,-0.0131620000000001
189.6,-0.011436
189.80000000000007,-0.008572
190.0,-0.006472
190.20000000000005,-0.0051640000000001
190.4,-0.006145
190.6,-0.0087680000000001
190.80000000000007,-0.0114009999999999
191.0,-0.012337
191.20000000000005,-0.0124190000000001
191.4,-0.0116169999999999
191.6,-0.009481
191.80000000000007,-0.0075850000000001
192.0,-0.0064520000000001
192.20000000000005,-0.007084
192.4,-0.007452
192.6,-0.008223
192.80000000000007,-0.009182
193.0,-0.011586
193.20000000000005,-0.012067
193.4,-0.0114560000000001
193.6,-0.0098230000000001
193.80000000000007,-0.0085810000000001
194.0,-0.0073590000000001
194.20000000000005,-0.007335
194.4,-0.0084520000000001
194.6,-0.0093199999999999
194.80000000000007,-0.009573
195.0,-0.0088099999999999
195.20000000000005,-0.00827
195.4,-0.0054560000000001
195.6,-0.005233
195.80000000000007,-0.0072620000000001
196.0,-0.0090130000000001
196.20000000000005,-0.0105510000000001
196.4,-0.0107130000000001
196.6,-0.009346
196.80000000000007,-0.0066050000000001
197.0,-0.0058330000000001
197.20000000000005,-0.00475
197.4,-0.0059919999999999
197.6,-0.007794
197.80000000000007,-0.0100140000000001
198.0,-0.0124350000000001
198.20000000000005,-0.01444
198.4,-0.016294
198.6,-0.017009
198.80000000000007,-0.016515
199.0,-0.0134750000000001
199.20000000000005,-0.0101950000000001
199.4,-0.0061500000000001
199.6,-0.003508
199.80000000000007,-0.0037040000000001
200.0,-0.0070810000000001
200.20000000000005,-0.012024
200.4,-0.0155400000000001
200.6,-0.017355
200.80000000000007,-0.016439
201.0,-0.0132340000000001
201.20000000000005,-0.009174
201.4,-0.0081870000000001
201.6,-0.0079900000000001
201.80000000000007,-0.0073860000000001
202.0,-0.0081740000000001
202.20000000000005,-0.008285
202.4,-0.0069050000000001
202.6,-0.00598
202.80000000000007,-0.0042889999999999
203.0,-0.0028080000000001
203.20000000000005,-0.0014480000000001
203.4,-0.0007380000000001
203.6,0.0007499999999998
203.80000000000007,-0.0020820000000001
204.0,-0.002523
204.20000000000005,-0.0027050000000001
204.4,-0.0028430000000001
204.6,-0.004161
204.80000000000007,-0.0041090000000001
205.0,-0.005559
205.20000000000005,-0.008342
205.4,-0.0095910000000001
205.6,-0.0092940000000001
205.80000000000007,-0.0063920000000001
206.0,-0.005748
206.20000000000005,-0.005298
206.4,-0.00825
206.6,-0.010129
206.80000000000007,-0.0131990000000001
207.0,-0.013228
207.20000000000005,-0.0133670000000001
207.4,-0.0117450000000001
207.6,-0.0107410000000001
207.80000000000007,-0.009741
208.0,-0.010253
208.20000000000005,-0.011665
208.4,-0.013017
208.6,-0.013614
208.80000000000007,-0.015446
209.0,-0.0193119999999999
209.20000000000005,-0.0210670000000001
209.4,-0.0207510000000001
209.6,-0.021711
209.80000000000007,-0.0229670000000001
210.0,-0.0201170000000001
210.20000000000005,-0.017816
210.4,-0.017279
210.6,-0.016847
210.80000000000007,-0.012826
211.0,-0.0113739999999999
211.20000000000005,-0.011457
211.4,-0.0131890000000001
211.6,-0.014332
211.80000000000007,-0.016936
212.0,-0.0163190000000001
212.20000000000005,-0.015057
212.4,-0.013276
212.6,-0.01434
212.80000000000007,-0.0149460000000001
213.0,-0.0159870000000001
213.20000000000005,-0.0150400000000001
213.4,-0.0148000000000001
213.6,-0.0135899999999999
213.80000000000007,-0.0145650000000001
214.0,-0.0146430000000001
214.20000000000005,-0.0157740000000001
214.4,-0.0166399999999999
214.6,-0.016143
214.80000000000007,-0.0148719999999999
215.0,-0.0134340000000001
215.20000000000005,-0.0109879999999999
215.4,-0.0077170000000001
215.6,-0.007284
215.80000000000007,-0.0061729999999999
216.0,-0.007525
216.20000000000005,-0.009125
216.4,-0.011578
216.6,-0.012121
216.80000000000007,-0.0144870000000001
217.0,-0.0162300000000001
217.20000000000005,-0.0186890000000001
217.4,-0.0206270000000001
217.6,-0.020726
217.80000000000007,-0.017943
218.0,-0.0162520000000001
218.20000000000005,-0.0150180000000001
218.4,-0.013471
218.6,-0.0129080000000001
218.80000000000007,-0.0136420000000001
219.0,-0.0137450000000001
219.20000000000005,-0.012825
219.4,-0.0113210000000001
219.6,-0.0101010000000001
219.80000000000007,-0.0095670000000001
220.0,-0.0088369999999999
220.20000000000005,-0.0095660000000001
220.4,-0.010858
220.6,-0.011303
220.80000000000007,-0.0110879999999999
221.0,-0.011527
221.20000000000005,-0.01061
221.4,-0.008734
221.6,-0.0085300000000001
221.80000000000007,-0.0072640000000001
222.0,-0.007398
222.20000000000005,-0.008895
222.4,-0.011589
222.6,-0.0126570000000001
222.80000000000007,-0.0147300000000001
223.0,-0.0138790000000001
223.20000000000005,-0.0120600000000001
223.4,-0.0108719999999999
223.6,-0.010547
223.80000000000007,-0.0091590000000001
224.0,-0.009006
224.20000000000005,-0.0090609999999999
224.4,-0.01011
224.6,-0.0104540000000001
224.80000000000007,-0.0121900000000001
225.0,-0.0129430000000001
225.20000000000005,-0.0125780000000002
225.4,-0.0113579999999999
225.6,-0.012248
225.80000000000007,-0.011981
226.0,-0.011211
226.20000000000005,-0.011158
226.4,-0.010715
226.6,-0.0092229999999999
226.80000000000007,-0.0073480000000001
227.0,-0.0068590000000001
227.20000000000005,-0.0071419999999999
227.4,-0.0086870000000001
227.6,-0.0079930000000001
227.80000000000007,-0.0096709999999999
228.0,-0.0092620000000001
228.20000000000005,-0.009249
228.4,-0.0094040000000001
228.6,-0.011972
228.80000000000007,-0.0132000000000001
229.0,-0.0162310000000001
229.20000000000005,-0.0179440000000001
229.4,-0.0176750000000001
229.6,-0.015889
229.80000000000007,-0.0137800000000001
230.0,-0.0124360000000001
230.20000000000005,-0.0127110000000001
230.4,-0.0122310000000001
230.6,-0.0124080000000001
230.80000000000007,-0.0132430000000001
231.0,-0.0119759999999999
231.20000000000005,-0.009451
231.4,-0.009335
231.6,-0.010021
231.80000000000007,-0.010094
232.0,-0.01163
232.20000000000005,-0.01465
232.4,-0.016466
232.6,-0.017311
232.80000000000007,-0.018539
233.0,-0.0177900000000001
233.20000000000005,-0.014351
233.4,-0.0089190000000001
233.6,-0.004645
233.80000000000007,-0.0028460000000001
234.0,-0.003937
234.20000000000005,-0.0068909999999999
234.4,-0.0104890000000001
234.6,-0.0139230000000001
234.80000000000007,-0.0138900000000001
235.0,-0.012575
235.20000000000005,-0.0125170000000001
235.4,-0.013894
235.6,-0.014639
235.80000000000007,-0.015114
236.0,-0.0153910000000001
236.20000000000005,-0.012512
236.4,-0.0079310000000001
236.6,-0.0055089999999999
236.80000000000007,-0.005881
237.0,-0.0082820000000001
237.20000000000005,-0.0114230000000001
237.4,-0.014283
237.6,-0.015247
237.80000000000007,-0.0144870000000001
238.0,-0.0128780000000001
238.20000000000005,-0.011811
238.4,-0.0117090000000001
238.6,-0.0110450000000001
238.80000000000007,-0.0109830000000001
239.0,-0.010704
239.20000000000005,-0.0110830000000001
239.4,-0.011908
239.6,-0.012715
239.80000000000007,-0.0109350000000001
240.0,-0.008256
240.20000000000005,-0.0051610000000001
240.4,-0.0022600000000001
240.6,-0.0007350000000001
240.80000000000007,-0.0033020000000001
241.0,-0.006885
241.20000000000005,-0.0105000000000001
241.4,-0.0147780000000001
241.6,-0.018097
241.80000000000007,-0.018485
242.0,-0.017589
242.20000000000005,-0.01753
242.4,-0.0181029999999999
242.6,-0.0183079999999999
242.80000000000007,-0.0184620000000002
243.0,-0.0200839999999999
243.20000000000005,-0.020056
243.4,-0.0182729999999999
243.6,-0.0154400000000001
243.80000000000007,-0.013395
244.0,-0.0125950000000001
244.20000000000005,-0.012761
244.4,-0.012987
244.6,-0.0132160000000001
244.80000000000007,-0.0139850000000001
245.0,-0.012172
245.20000000000005,-0.009832
245.4,-0.00729
245.6,-0.0064760000000001
245.80000000000007,-0.0076830000000001
246.0,-0.010496
246.20000000000005,-0.011846
246.4,-0.011616
246.6,-0.012642
246.80000000000007,-0.0124870000000001
247.0,-0.011252
247.20000000000005,-0.012612
247.4,-0.015292
247.6,-0.0148030000000001
247.80000000000007,-0.013862
248.0,-0.013992
248.20000000000005,-0.0141710000000001
248.4,-0.0148639999999999
248.6,-0.0169940000000001
248.80000000000007,-0.0175310000000001
249.0,-0.016699
249.20000000000005,-0.0155230000000001
249.4,-0.0144650000000001
249.6,-0.012259
249.80000000000007,-0.01119
250.0,-0.0107410000000001
250.20000000000005,-0.0100040000000001
250.4,-0.0076200000000001
250.6,-0.007667
250.80000000000007,-0.0096150000000001
251.0,-0.011757
251.20000000000005,-0.0142650000000001
251.4,-0.01624
251.6,-0.01746
251.80000000000007,-0.016432
252.0,-0.015211
252.20000000000005,-0.0132970000000001
252.4,-0.013511
252.6,-0.012626
252.80000000000007,-0.0128670000000001
253.0,-0.0131700000000001
253.20000000000005,-0.0140230000000001
253.4,-0.0149160000000001
253.6,-0.015711
253.80000000000007,-0.0146620000000001
254.0,-0.014234
254.20000000000005,-0.013209
254.4,-0.0114420000000001
254.6,-0.010596
254.80000000000007,-0.0119790000000001
255.0,-0.0152149999999999
255.20000000000005,-0.0177690000000001
255.4,-0.0195050000000001
255.6,-0.0205490000000001
255.80000000000007,-0.022763
256.0,-0.0209000000000001
256.20000000000005,-0.018148
256.4,-0.015714
256.6,-0.013649
256.80000000000007,-0.008785
257.0,-0.007986
257.20000000000005,-0.008995
257.4,-0.0114930000000001
257.6,-0.0145680000000001
257.80000000000007,-0.0164350000000002
258.0,-0.0163619999999999
258.20000000000005,-0.0178249999999999
258.4,-0.0182360000000001
258.6,-0.016299
258.80000000000007,-0.016691
259.0,-0.017168
259.20000000000005,-0.01729
259.4,-0.016218
259.6,-0.01547
259.80000000000007,-0.0130890000000001
260.0,-0.011492
260.20000000000005,-0.008987
260.4,-0.008243
260.6,-0.0092210000000001
260.80000000000007,-0.0089640000000001
261.0,-0.0062660000000001
261.20000000000005,-0.0035310000000001
261.4,-0.003457
261.6,-0.004653
261.80000000000007,-0.0062170000000001
262.0,-0.008358
262.20000000000005,-0.0104250000000001
262.4,-0.012858
262.6,-0.014745
262.80000000000007,-0.0193800000000001
263.0,-0.023983
263.20000000000005,-0.026464
263.4,-0.0236009999999999
263.6,-0.020485
263.80000000000007,-0.0171370000000001
264.0,-0.015233
264.20000000000005,-0.0144540000000001
264.4,-0.014323
264.6,-0.013349
264.80000000000007,-0.0112929999999999
265.0,-0.008944
265.20000000000005,-0.0093770000000001
265.4,-0.0115400000000001
265.6,-0.01201
265.80000000000007,-0.0111670000000001
266.0,-0.0119710000000001
266.20000000000005,-0.0108220000000001
266.4,-0.012067
266.6,-0.014774
266.80000000000007,-0.0182090000000001
267.0,-0.0178120000000001
267.20000000000005,-0.017325
267.4,-0.015821
267.6,-0.013935
267.80000000000007,-0.0130650000000001
268.0,-0.01288
268.20000000000005,-0.012394
268.4,-0.0105540000000001
268.6,-0.009738
268.80000000000007,-0.0093210000000001
269.0,-0.0082079999999999
269.20000000000005,-0.00723
269.4,-0.0071769999999999
269.6,-0.0089730000000001
269.80000000000007,-0.008631
270.0,-0.0114610000000001
270.20000000000005,-0.014016
270.4,-0.015552
270.6,-0.0148099999999999
270.80000000000007,-0.015079
271.0,-0.013171
271.20000000000005,-0.0141140000000001
271.4,-0.01672
271.6,-0.019681
271.80000000000007,-0.020561
272.0,-0.022045
272.20000000000005,-0.020707
272.4,-0.0185920000000001
272.6,-0.016418
272.80000000000007,-0.0173700000000001
273.0,-0.0197439999999999
273.20000000000005,-0.02041
273.4,-0.020264
273.6,-0.019311
273.80000000000007,-0.0182300000000001
274.0,-0.0151640000000001
274.20000000000005,-0.014928
274.4,-0.0143170000000001
274.6,-0.014299
274.80000000000007,-0.0139280000000001
275.0,-0.0145170000000001
275.20000000000005,-0.0132050000000001
275.4,-0.012788
275.6,-0.0126240000000001
275.80000000000007,-0.0113160000000001
276.0,-0.011578
276.20000000000005,-0.013003
276.4,-0.014415
276.6,-0.015703
276.80000000000007,-0.0176370000000001
277.0,-0.0175750000000001
277.20000000000005,-0.0166710000000001
277.4,-0.0148970000000001
277.6,-0.0135020000000001
277.80000000000007,-0.013409
278.0,-0.0126590000000001
278.20000000000005,-0.012788
278.4,-0.0144000000000001
278.6,-0.014353
278.80000000000007,-0.0129910000000001
279.0,-0.013492
279.20000000000005,-0.014963
279.4,-0.0143250000000001
279.6,-0.0152260000000001
279.80000000000007,-0.0166350000000001
280.0,-0.0171000000000001
280.20000000000005,-0.015255
280.4,-0.0148680000000001
280.6,-0.0133800000000001
280.80000000000007,-0.0133309999999999
281.0,-0.0123010000000001
281.20000000000005,-0.0132800000000001
281.4,-0.01445
281.6,-0.0155480000000001
281.80000000000007,-0.0148240000000001
282.0,-0.013093
282.20000000000005,-0.0113849999999999
282.4,-0.0086950000000001
282.6,-0.007308
282.80000000000007,-0.006121
283.0,-0.0072389999999999
283.20000000000005,-0.0073310000000001
283.4,-0.0076260000000001
283.6,-0.0093480000000001
283.80000000000007,-0.011327
284.0,-0.012871
284.20000000000005,-0.0154070000000001
284.4,-0.0169320000000001
284.6,-0.0151260000000001
284.80000000000007,-0.012188
285.0,-0.010537
285.20000000000005,-0.0103250000000001
285.4,-0.0134290000000001
285.6,-0.0175340000000001
285.80000000000007,-0.021484
286.0,-0.022672
286.20000000000005,-0.0210030000000001
286.4,-0.016637
286.6,-0.0123699999999999
286.80000000000007,-0.0114800000000001
287.0,-0.0127460000000001
287.20000000000005,-0.0149270000000001
287.4,-0.016682
287.6,-0.018137
287.80000000000007,-0.016391
288.0,-0.013284
288.20000000000005,-0.0108190000000001
288.4,-0.0106680000000001
288.6,-0.0126080000000001
288.80000000000007,-0.0143429999999999
289.0,-0.015775
289.20000000000005,-0.0165790000000001
289.4,-0.0160420000000001
289.6,-0.014321
289.80000000000007,-0.013233
290.0,-0.012896
290.20000000000005,-0.011158
290.4,-0.0103969999999999
290.6,-0.010151
290.80000000000007,-0.01112
291.0,-0.0129240000000001
291.20000000000005,-0.0147810000000001
291.4,-0.0145239999999999
291.6,-0.013894
291.80000000000007,-0.0149430000000001
292.0,-0.015784
292.20000000000005,-0.015298
292.4,-0.014361
292.6,-0.015719
292.80000000000007,-0.0150920000000001
293.0,-0.0135899999999999
293.20000000000005,-0.0131810000000001
293.4,-0.0136690000000001
293.6,-0.0126000000000001
293.80000000000007,-0.01221
294.0,-0.0111050000000001
294.20000000000005,-0.0125170000000001
294.4,-0.0130890000000001
294.6,-0.0134070000000001
294.80000000000007,-0.0141490000000001
295.0,-0.0166129999999999
295.20000000000005,-0.016685
295.4,-0.019076
295.6,-0.019605
295.79999999999995,-0.0241770000000001
296.0,-0.0262420000000001
296.20000000000005,-0.0275840000000001
296.4000000000001,-0.0303670000000001
296.6,-0.0305450000000001
296.80000000000007,-0.0296660000000001
297.0,-0.0276120000000001
297.20000000000005,-0.0276090000000001
297.4000000000001,-0.0284510000000001
297.6,-0.0295610000000001
297.80000000000007,-0.0305810000000001
298.0,-0.030902
298.20000000000005,-0.0289860000000001
298.4000000000001,-0.0263250000000001
298.6,-0.0253510000000001
298.80000000000007,-0.0251940000000001
299.0,-0.0249270000000001
299.20000000000005,-0.0257170000000001
299.4000000000001,-0.0264910000000001
299.6,-0.0251900000000001
299.80000000000007,-0.0234790000000001
300.0,-0.0222280000000001
300.20000000000005,-0.0211840000000002
300.4000000000001,-0.0198520000000002
300.6,-0.0209170000000001
300.80000000000007,-0.0229030000000001
301.0,-0.0259440000000001
301.20000000000005,-0.0268300000000001
301.4000000000001,-0.0274180000000001
301.6,-0.0274220000000001
301.80000000000007,-0.0268910000000001
302.0,-0.0250610000000001
302.20000000000005,-0.0230010000000001
302.4000000000001,-0.0235430000000002
302.6,-0.0232970000000001
302.80000000000007,-0.0222210000000001
303.0,-0.0217670000000002
303.20000000000005,-0.0249020000000002
303.4000000000001,-0.0279530000000001
303.6,-0.0285500000000001
303.80000000000007,-0.0296170000000001
304.0,-0.0298990000000001
304.20000000000005,-0.0285240000000001
304.4000000000001,-0.0235480000000001
304.6,-0.0221380000000001
304.80000000000007,-0.0207140000000001
305.0,-0.0191720000000001
305.20000000000005,-0.0179180000000001
305.4000000000001,-0.0192470000000001
305.6,-0.0213300000000001
305.80000000000007,-0.0230160000000001
306.0,-0.0242010000000001
306.20000000000005,-0.0246870000000001
306.4000000000001,-0.0269420000000001
306.6,-0.0285760000000001
306.80000000000007,-0.0300100000000002
307.0,-0.0316470000000002
307.20000000000005,-0.0344730000000002
307.4000000000001,-0.0349450000000001
307.6,-0.0328130000000002
307.80000000000007,-0.0315920000000001
308.0,-0.0291280000000001
308.20000000000005,-0.0266570000000001
308.4000000000001,-0.0253150000000002
308.6,-0.025404
308.80000000000007,-0.0254840000000001
309.0,-0.0257660000000001
309.20000000000005,-0.0251140000000001
309.4000000000001,-0.0237000000000001
309.6,-0.0232860000000001
309.80000000000007,-0.0241390000000001
310.0,-0.0262720000000001
310.20000000000005,-0.0272930000000001
310.4000000000001,-0.0261500000000001
310.6,-0.0247170000000001
310.80000000000007,-0.0217000000000001
311.0,-0.0195590000000001
311.20000000000005,-0.0185920000000001
311.4000000000001,-0.0205260000000001
311.6,-0.0222580000000001
311.80000000000007,-0.0244690000000001
312.0,-0.0230730000000001
312.20000000000005,-0.0220030000000001
312.4000000000001,-0.0200480000000001
312.6,-0.0179050000000001
312.80000000000007,-0.0153640000000001
313.0,-0.0167200000000001
313.20000000000005,-0.0186170000000001
313.4000000000001,-0.0222860000000001
313.6,-0.0244460000000001
313.80000000000007,-0.0277470000000001
314.0,-0.0304260000000001
314.20000000000005,-0.0332060000000001
314.4000000000001,-0.0328850000000001
314.6,-0.0318660000000001
314.80000000000007,-0.0296560000000001
315.0,-0.0273370000000001
315.20000000000005,-0.0245890000000001
315.4000000000001,-0.0234540000000001
315.6,-0.0224610000000001
315.80000000000007,-0.0213150000000001
316.0,-0.0195130000000001
316.20000000000005,-0.0173470000000001
316.4000000000001,-0.0165070000000001
316.6,-0.0187330000000001
316.80000000000007,-0.0211700000000001
317.0,-0.0224160000000001
317.20000000000005,-0.0243050000000001
317.4000000000001,-0.0239660000000001
317.6,-0.0221200000000001
317.80000000000007,-0.0195960000000001
318.0,-0.0195030000000001
318.20000000000005,-0.01747
318.4000000000001,-0.0177260000000001
318.6,-0.0186240000000001
318.80000000000007,-0.0214180000000001
319.0,-0.0231180000000001
319.20000000000005,-0.0266810000000001
319.4000000000001,-0.0269820000000001
319.6,-0.0257830000000001
319.80000000000007,-0.0228340000000001
320.0,-0.0200670000000001
320.20000000000005,-0.0176930000000001
320.4000000000001,-0.0169300000000001
320.6,-0.0157760000000001
320.80000000000007,-0.0180290000000001
321.0,-0.0192780000000001
321.20000000000005,-0.0208360000000001
321.4000000000001,-0.0225140000000001
321.6,-0.0247100000000001
321.80000000000007,-0.0239540000000001
322.0,-0.023547
322.20000000000005,-0.0225230000000001
322.4000000000001,-0.0224180000000001
322.6,-0.0233050000000001
322.80000000000007,-0.0235410000000001
323.0,-0.0236950000000001
323.20000000000005,-0.0236920000000001
323.4000000000001,-0.0217020000000001
323.6,-0.0189330000000002
323.80000000000007,-0.0193130000000001
324.0,-0.0199630000000001
324.20000000000005,-0.0206360000000001
324.4000000000001,-0.0216580000000001
324.6,-0.0260750000000001
324.80000000000007,-0.0280260000000001
325.0,-0.0285480000000001
325.20000000000005,-0.0266120000000001
325.4000000000001,-0.0242550000000001
325.6,-0.0210430000000001
325.80000000000007,-0.0197730000000001
326.0,-0.021493
326.20000000000005,-0.0244160000000001
326.4000000000001,-0.0263880000000001
326.6,-0.0253510000000001
326.80000000000007,-0.0231350000000001
327.0,-0.0206970000000001
327.20000000000005,-0.0192630000000001
327.4000000000001,-0.0194100000000001
327.6,-0.0231320000000001
327.80000000000007,-0.0257640000000001
328.0,-0.0271890000000001
328.20000000000005,-0.0286660000000001
328.4000000000001,-0.0303720000000001
328.6,-0.0284980000000001
328.80000000000007,-0.0262390000000001
329.0,-0.0254450000000001
329.20000000000005,-0.0247040000000001
329.4000000000001,-0.0226560000000001
329.6,-0.0203700000000001
329.80000000000007,-0.0198450000000001
330.0,-0.0186170000000001
330.20000000000005,-0.0184050000000001
330.4000000000001,-0.0200480000000001
330.6,-0.0220800000000001
330.80000000000007,-0.022161
331.0,-0.0235690000000001
331.20000000000005,-0.0235680000000001
331.4000000000001,-0.0212540000000001
331.6,-0.0198650000000001
331.80000000000007,-0.0194620000000002
332.0,-0.016192
332.20000000000005,-0.0137400000000001
332.4000000000001,-0.0138740000000001
332.6,-0.0161500000000001
332.80000000000007,-0.0193190000000001
333.0,-0.0240660000000001
333.20000000000005,-0.026014
333.4000000000001,-0.0265660000000002
333.6,-0.0248570000000001
333.80000000000007,-0.0236030000000001
334.0,-0.0237760000000001
334.20000000000005,-0.0248530000000001
334.4000000000001,-0.0247770000000001
334.6,-0.0238710000000001
334.80000000000007,-0.0229980000000001
335.0,-0.0201260000000002
335.20000000000005,-0.0193070000000001
335.4000000000001,-0.0204290000000001
335.6,-0.0211390000000001
335.80000000000007,-0.0222740000000001
336.0,-0.0244280000000001
336.20000000000005,-0.0254010000000001
336.4000000000001,-0.0243470000000001
336.6,-0.0251690000000001
336.80000000000007,-0.024516
337.0,-0.0224580000000002
337.20000000000005,-0.0199450000000001
337.4000000000001,-0.0198180000000001
337.6,-0.0200980000000001
337.80000000000007,-0.0212090000000001
338.0,-0.0229430000000001
338.20000000000005,-0.0259140000000001
338.4000000000001,-0.0276190000000001
338.6,-0.0292250000000001
338.80000000000007,-0.0284990000000001
339.0,-0.0285640000000001
339.20000000000005,-0.0260110000000001
339.4000000000001,-0.0254960000000001
339.6,-0.0240150000000001
339.80000000000007,-0.0236470000000001
340.0,-0.0229130000000001
340.20000000000005,-0.0247420000000001
340.4000000000001,-0.0256330000000001
340.6,-0.0250480000000001
340.80000000000007,-0.0251370000000001
341.0,-0.0243470000000001
341.20000000000005,-0.0234120000000001
341.4000000000001,-0.0232030000000001
341.6,-0.0252320000000001
341.80000000000007,-0.026821
342.0,-0.0283220000000001
342.20000000000005,-0.0292430000000001
342.4000000000001,-0.0287240000000001
342.6,-0.0266450000000001
342.80000000000007,-0.0236640000000001
343.0,-0.0218900000000001
343.20000000000005,-0.020825
343.4000000000001,-0.0197120000000001
343.6,-0.0183320000000001
343.80000000000007,-0.0198170000000001
344.0,-0.0217090000000002
344.20000000000005,-0.0229080000000001
344.4000000000001,-0.0240900000000001
344.6,-0.0251680000000001
344.80000000000007,-0.0236760000000001
345.0,-0.0218910000000001
345.20000000000005,-0.0226080000000001
345.4000000000001,-0.0237120000000001
345.6,-0.0252120000000001
345.80000000000007,-0.0266330000000001
346.0,-0.0267010000000001
346.20000000000005,-0.0236210000000001
346.4000000000001,-0.0213850000000001
346.6,-0.0219560000000001
346.80000000000007,-0.0265360000000001
347.0,-0.0318190000000001
347.20000000000005,-0.0358540000000001
347.4000000000001,-0.0374040000000001
347.6,-0.0372960000000001
347.80000000000007,-0.0347360000000001
348.0,-0.0312620000000001
348.20000000000005,-0.0280900000000001
348.4000000000001,-0.0265730000000001
348.6,-0.0247290000000001
348.80000000000007,-0.0231140000000001
349.0,-0.0202790000000001
349.20000000000005,-0.0199670000000001
349.4000000000001,-0.0205440000000001
349.6,-0.0230660000000001
349.80000000000007,-0.0234580000000002
350.0,-0.0253000000000001
350.20000000000005,-0.0253620000000001
350.4000000000001,-0.0250530000000001
350.6,-0.0247850000000001
350.80000000000007,-0.0261120000000001
351.0,-0.0264650000000001
351.20000000000005,-0.0246800000000001
351.4000000000001,-0.0250220000000001
351.6,-0.0237480000000001
351.80000000000007,-0.0217700000000001
352.0,-0.0222820000000001
352.20000000000005,-0.02535
352.4000000000001,-0.0244970000000001
352.6,-0.0216170000000001
352.80000000000007,-0.019802
353.0,-0.0197070000000001
353.20000000000005,-0.0202490000000001
353.4000000000001,-0.0213300000000001
353.6,-0.0219020000000002
353.80000000000007,-0.0227290000000001
354.0,-0.0213860000000001
354.20000000000005,-0.0209560000000001
354.4000000000001,-0.0216480000000001
354.6,-0.0248470000000001
354.80000000000007,-0.0270560000000001
355.0,-0.0276610000000001
355.20000000000005,-0.0265600000000001
355.4000000000001,-0.0253340000000001
355.6,-0.0249390000000001
355.80000000000007,-0.0247170000000001
356.0,-0.0260590000000001
356.20000000000005,-0.0282100000000001
356.4000000000001,-0.0303090000000001
356.6,-0.0314330000000001
356.80000000000007,-0.0314150000000001
357.0,-0.0306350000000001
357.20000000000005,-0.0282430000000001
357.4000000000001,-0.0259760000000001
357.6,-0.0234050000000001
357.80000000000007,-0.0218340000000001
358.0,-0.0216420000000001
358.20000000000005,-0.023798
358.4000000000001,-0.0250360000000001
358.6,-0.0255800000000001
358.80000000000007,-0.0279010000000001
359.0,-0.0290420000000001
359.20000000000005,-0.0289060000000001
359.4000000000001,-0.0284970000000001
359.6,-0.0289050000000001
359.80000000000007,-0.0278150000000001
360.0,-0.0274450000000001
360.20000000000005,-0.0280780000000001
360.4000000000001,-0.0291340000000001
360.6,-0.0292500000000001
360.80000000000007,-0.0265950000000001
361.0,-0.0219560000000001
361.2000000000001,-0.0190020000000001
361.4000000000001,-0.0174370000000001
361.6,-0.0164170000000001
361.80000000000007,-0.0184030000000001
362.0,-0.0225970000000002
362.2000000000001,-0.0238530000000001
362.4000000000001,-0.0254860000000001
362.6,-0.0254810000000001
362.80000000000007,-0.0256140000000001
363.0,-0.0244900000000001
363.2000000000001,-0.0245130000000001
363.4000000000001,-0.0232390000000001
363.6,-0.0231220000000001
363.80000000000007,-0.0225690000000001
364.0,-0.0236120000000001
364.2000000000001,-0.0249490000000001
364.4000000000001,-0.0270150000000001
364.6,-0.0293050000000001
364.80000000000007,-0.0320610000000001
365.0,-0.0318810000000001
365.2000000000001,-0.030844
365.4000000000001,-0.0294
365.6,-0.0278280000000001
365.80000000000007,-0.0250950000000002
366.0,-0.0228800000000001
366.2000000000001,-0.0221210000000001
366.4000000000001,-0.0204640000000001
366.6,-0.0213280000000001
366.80000000000007,-0.0220070000000001
367.0,-0.0246420000000001
367.2000000000001,-0.0260160000000001
367.4000000000001,-0.0278590000000001
367.6,-0.0284260000000001
367.80000000000007,-0.0286790000000001
368.0,-0.0292730000000001
368.2000000000001,-0.0308420000000001
368.4000000000001,-0.0322870000000001
368.6,-0.0332230000000001
368.80000000000007,-0.0329980000000001
369.0,-0.0314560000000001
369.2000000000001,-0.0276080000000001
369.4000000000001,-0.0247560000000001
369.6,-0.0213330000000001
369.80000000000007,-0.0214910000000001
370.0,-0.0233730000000002
370.2000000000001,-0.0269010000000001
370.4000000000001,-0.0299200000000001
370.6,-0.0327750000000001
370.80000000000007,-0.0325760000000001
371.0,-0.0322460000000001
371.2000000000001,-0.0305180000000001
371.4000000000001,-0.0278230000000001
371.6,-0.0251610000000001
371.80000000000007,-0.0251910000000001
372.0,-0.0233380000000001
372.2000000000001,-0.0223950000000001
372.4000000000001,-0.0231200000000001
372.6,-0.0263180000000001
372.80000000000007,-0.0275290000000001
373.0,-0.0301460000000001
373.2000000000001,-0.0326560000000001
373.4000000000001,-0.0337030000000001
373.6,-0.0316410000000001
373.80000000000007,-0.0295720000000001
374.0,-0.0276520000000001
374.2000000000001,-0.0266560000000001
374.4000000000001,-0.0268170000000002
374.6,-0.0282120000000001
374.80000000000007,-0.0281950000000001
375.0,-0.0276740000000002
375.2000000000001,-0.0275460000000001
375.4000000000001,-0.0258550000000001
375.6,-0.0234510000000001
375.80000000000007,-0.0245780000000001
376.0,-0.0254900000000001
376.2000000000001,-0.0268000000000001
376.4000000000001,-0.0276480000000001
376.6,-0.0306770000000001
376.80000000000007,-0.0310310000000001
377.0,-0.0316460000000001
377.2000000000001,-0.0298500000000001
377.4000000000001,-0.0300210000000001
377.6,-0.0299160000000001
377.80000000000007,-0.0290600000000001
378.0,-0.0287990000000001
378.2000000000001,-0.0296060000000001
378.4000000000001,-0.0292390000000001
378.6,-0.0251380000000001
378.80000000000007,-0.0232230000000001
379.0,-0.0206250000000001
379.2000000000001,-0.0194820000000001
379.4000000000001,-0.0198060000000001
379.6,-0.0222560000000001
379.80000000000007,-0.0243920000000001
380.0,-0.0272580000000001
380.2000000000001,-0.0277480000000001
380.4000000000001,-0.0273540000000001
380.6,-0.0282480000000001
380.80000000000007,-0.0301910000000001
381.0,-0.0309090000000001
381.2000000000001,-0.0317000000000001
381.4000000000001,-0.0319490000000001
381.6,-0.0325590000000001
381.80000000000007,-0.0333230000000001
382.0,-0.0335150000000001
382.2000000000001,-0.0337370000000001
382.4000000000001,-0.034979
382.6,-0.0340750000000001
382.80000000000007,-0.0322940000000001
383.0,-0.0295290000000001
383.2000000000001,-0.0290880000000001
383.4000000000001,-0.0283430000000001
383.6,-0.0282570000000002
383.80000000000007,-0.0267300000000001
384.0,-0.027624
384.2000000000001,-0.0276610000000001
384.4000000000001,-0.0288860000000001
384.6,-0.0305050000000001
384.80000000000007,-0.0349930000000001
385.0,-0.0385500000000001
385.2000000000001,-0.0382760000000002
385.4000000000001,-0.0354120000000001
385.6,-0.0311730000000001
385.80000000000007,-0.0269630000000001
386.0,-0.0239890000000001
386.2000000000001,-0.0254680000000001
386.4000000000001,-0.0271830000000001
386.6,-0.0275550000000001
386.80000000000007,-0.0271970000000001
387.0,-0.0261520000000001
387.2000000000001,-0.0240090000000001
387.4000000000001,-0.0230630000000001
387.6,-0.0261360000000001
387.80000000000007,-0.0282710000000001
388.0,-0.0306600000000001
388.2000000000001,-0.0312920000000001
388.4000000000001,-0.032122
388.6,-0.0312620000000001
388.80000000000007,-0.0310490000000001
389.0,-0.0304730000000001
389.2000000000001,-0.0320690000000001
389.4000000000001,-0.0342670000000001
389.6,-0.0350720000000001
389.80000000000007,-0.0341670000000001
390.0,-0.0336180000000001
390.2000000000001,-0.0314500000000002
390.4000000000001,-0.0281210000000001
390.6,-0.0283320000000001
390.80000000000007,-0.0310980000000001
391.0,-0.0323630000000001
391.2000000000001,-0.033037
391.4000000000001,-0.0324800000000001
391.6,-0.0305370000000001
391.80000000000007,-0.0287680000000001
392.0,-0.027041
392.2000000000001,-0.0269070000000001
392.4000000000001,-0.0288590000000001
392.6,-0.0298650000000001
392.80000000000007,-0.0279370000000001
393.0,-0.0284440000000001
393.2000000000001,-0.0295060000000001
393.4000000000001,-0.0310020000000001
393.6,-0.0331580000000001
393.80000000000007,-0.0341650000000001
394.0,-0.0338510000000001
394.2000000000001,-0.0307720000000001
394.4000000000001,-0.0289200000000001
394.6,-0.0267000000000001
394.80000000000007,-0.0267740000000001
395.0,-0.0268670000000001
395.2000000000001,-0.0313640000000001
395.4000000000001,-0.0346850000000001
395.6,-0.0370110000000001
395.80000000000007,-0.0378040000000001
396.0,-0.0372790000000001
396.2000000000001,-0.0342590000000001
396.4000000000001,-0.0294450000000001
396.6,-0.0259940000000001
396.80000000000007,-0.0256640000000001
397.0,-0.0279520000000002
397.2000000000001,-0.032315
397.4000000000001,-0.0365050000000001
397.6,-0.0386370000000001
397.80000000000007,-0.039033
398.0,-0.0370400000000001
398.2000000000001,-0.0334400000000001
398.4000000000001,-0.0326670000000001
398.6,-0.0337550000000002
398.80000000000007,-0.0338470000000001
399.0,-0.0347530000000001
399.2000000000001,-0.0362920000000001
399.4000000000001,-0.0359390000000001
399.6,-0.0348240000000001
399.80000000000007,-0.0352870000000001
400.0,-0.0361630000000001
400.2000000000001,-0.0347960000000001
400.4000000000001,-0.0335960000000001
400.6,-0.0311180000000002
400.80000000000007,-0.0294230000000002
401.0,-0.0275220000000001
401.2000000000001,-0.0276720000000001
401.4000000000001,-0.0279350000000001
401.6,-0.0312400000000001
401.80000000000007,-0.0343990000000001
402.0,-0.0377160000000001
402.2000000000001,-0.0392810000000001
402.4000000000001,-0.0404720000000001
402.6,-0.039809
402.80000000000007,-0.0372000000000001
403.0,-0.0337160000000001
403.2000000000001,-0.0310590000000001
403.4000000000001,-0.0289430000000001
403.6,-0.0280850000000001
403.80000000000007,-0.0310540000000001
404.0,-0.0354190000000002
404.2000000000001,-0.039087
404.4000000000001,-0.0422080000000001
404.6,-0.0453180000000001
404.80000000000007,-0.0459290000000001
405.0,-0.0447190000000001
405.2000000000001,-0.0432580000000001
405.4000000000001,-0.0420850000000001
405.6,-0.0401540000000001
405.80000000000007,-0.0369920000000001
406.0,-0.0349940000000001
406.2000000000001,-0.0348880000000001
406.4000000000001,-0.0341450000000002
406.6,-0.0345730000000001
406.80000000000007,-0.0348010000000001
407.0,-0.0343450000000001
407.2000000000001,-0.0328550000000001
407.4000000000001,-0.0320040000000001
407.6,-0.0320710000000001
407.80000000000007,-0.0327940000000001
408.0,-0.0334720000000001
408.2000000000001,-0.0320510000000001
408.4000000000001,-0.0299420000000001
408.6,-0.0278410000000001
408.80000000000007,-0.027184
409.0,-0.0262820000000001
409.2000000000001,-0.0279250000000002
409.4000000000001,-0.0305000000000001
409.6,-0.0305270000000001
409.80000000000007,-0.0289970000000001
410.0,-0.0287310000000001
410.2000000000001,-0.0290200000000001
410.4000000000001,-0.0287960000000001
410.6,-0.0293220000000001
410.80000000000007,-0.0299750000000001
411.0,-0.0280360000000001
411.2000000000001,-0.0265780000000001
411.4000000000001,-0.0268660000000001
411.6,-0.0276170000000001
411.80000000000007,-0.0274150000000001
412.0,-0.0309270000000001
412.2000000000001,-0.0320750000000001
412.4000000000001,-0.0312250000000001
412.6,-0.0313340000000001
412.80000000000007,-0.0312470000000001
413.0,-0.0303390000000001
413.2000000000001,-0.0289630000000001
413.4000000000001,-0.0286010000000001
413.6,-0.0275420000000001
413.80000000000007,-0.028265
414.0,-0.0276880000000001
414.2000000000001,-0.0298780000000001
414.4000000000001,-0.0307870000000001
414.6,-0.0330130000000001
414.80000000000007,-0.0330520000000001
415.0,-0.0326580000000001
415.2000000000001,-0.031956
415.4000000000001,-0.0317950000000001
415.6,-0.0302850000000001
415.80000000000007,-0.0324740000000001
416.0,-0.0365970000000001
416.2000000000001,-0.0379100000000001
416.4000000000001,-0.0366790000000001
416.6,-0.0361040000000001
416.80000000000007,-0.0346300000000001
417.0,-0.0324470000000001
417.2000000000001,-0.0319360000000001
417.4000000000001,-0.0339820000000001
417.6,-0.0352410000000001
417.80000000000007,-0.0354270000000001
418.0,-0.0355700000000001
418.2000000000001,-0.0354620000000001
418.4000000000001,-0.0349880000000001
418.6,-0.0351790000000001
418.80000000000007,-0.0363760000000001
419.0,-0.0370520000000001
419.2000000000001,-0.0372760000000002
419.4000000000001,-0.0385850000000002
419.6,-0.0390360000000001
419.80000000000007,-0.0376010000000001
420.0,-0.0345490000000001
420.2000000000001,-0.0327640000000001
420.4000000000001,-0.0304050000000001
420.6,-0.0270580000000001
420.80000000000007,-0.0238260000000001
421.0,-0.0243050000000001
421.2000000000001,-0.0257340000000001
421.4000000000001,-0.0269100000000001
421.6,-0.0288130000000002
421.80000000000007,-0.0317910000000001
422.0,-0.0330750000000001
422.2000000000001,-0.0333650000000002
422.4000000000001,-0.0327330000000001
422.6,-0.0319690000000001
422.80000000000007,-0.0317380000000001
423.0,-0.0337260000000001
423.2000000000001,-0.0348260000000001
423.4000000000001,-0.0359010000000001
423.6,-0.0357840000000001
423.80000000000007,-0.0349750000000002
424.0,-0.0319530000000001
424.2000000000001,-0.0279910000000001
424.4000000000001,-0.0266270000000001
424.6,-0.0260500000000001
424.80000000000007,-0.0282210000000001
425.0,-0.0299460000000001
425.2000000000001,-0.0333210000000001
425.4000000000001,-0.0352340000000001
425.6,-0.0376170000000001
425.80000000000007,-0.0380940000000001
426.0,-0.0383020000000001
426.2000000000001,-0.0371650000000001
426.4000000000001,-0.0356410000000001
426.6,-0.0325320000000001
426.80000000000007,-0.0295820000000001
427.0,-0.0292210000000001
427.2000000000001,-0.0301450000000002
427.4000000000001,-0.0311160000000001
427.6,-0.0333610000000001
427.80000000000007,-0.0352890000000001
428.0,-0.0336620000000001
428.2000000000001,-0.0315080000000002
428.4000000000001,-0.0306450000000001
428.6,-0.0294920000000001
428.80000000000007,-0.0270700000000001
429.0,-0.0270960000000001
429.2000000000001,-0.0300110000000001
429.4000000000001,-0.0313910000000001
429.6,-0.0328270000000001
429.80000000000007,-0.0340620000000001
430.0,-0.0355500000000001
430.2000000000001,-0.0342010000000001
430.4000000000001,-0.032068
430.6,-0.0269940000000001
430.80000000000007,-0.024991
431.0,-0.0221620000000001
431.2000000000001,-0.0208190000000001
431.4000000000001,-0.0211470000000001
431.6,-0.0263700000000001
431.80000000000007,-0.0300020000000001
432.0,-0.0329190000000001
432.2000000000001,-0.0339790000000002
432.4000000000001,-0.0334140000000001
432.6,-0.0339580000000001
432.80000000000007,-0.0320580000000001
433.0,-0.0299300000000001
433.2000000000001,-0.0298610000000001
433.4000000000001,-0.0315990000000001
433.6,-0.0319550000000001
433.80000000000007,-0.0334240000000001
434.0,-0.0341420000000001
434.2000000000001,-0.0323000000000001
434.4000000000001,-0.0306620000000001
434.6,-0.0312380000000001
434.80000000000007,-0.0318700000000001
435.0,-0.0334800000000001
435.2000000000001,-0.0352890000000001
435.4000000000001,-0.0352350000000001
435.6,-0.0327580000000001
435.80000000000007,-0.0309750000000001
436.0,-0.029902
436.2000000000001,-0.030817
436.4000000000001,-0.0352480000000001
436.6,-0.0375860000000001
436.80000000000007,-0.039921
437.0,-0.0410170000000001
437.2000000000001,-0.0404130000000001
437.4000000000001,-0.0363510000000001
437.6,-0.0337250000000001
437.80000000000007,-0.0310420000000001
438.0,-0.0284780000000001
438.2000000000001,-0.0264110000000001
438.4000000000001,-0.0270700000000001
438.6,-0.0303970000000001
438.80000000000007,-0.0339500000000001
439.0,-0.0379320000000001
439.2000000000001,-0.0433170000000001
439.4000000000001,-0.0459590000000001
439.6,-0.0457140000000001
439.80000000000007,-0.0437050000000001
440.0,-0.0427910000000001
440.2000000000001,-0.0414200000000001
440.4000000000001,-0.0419510000000001
440.6,-0.0418220000000001
440.80000000000007,-0.0431440000000001
441.0,-0.0426720000000001
441.2000000000001,-0.0412620000000001
441.4000000000001,-0.0389100000000001
441.6,-0.0385530000000001
441.80000000000007,-0.0377180000000001
442.0,-0.0374090000000001
442.2000000000001,-0.0368010000000001
442.4000000000001,-0.0353390000000001
442.6,-0.0338050000000001
442.80000000000007,-0.0326710000000001
443.0,-0.0325510000000001
443.2000000000001,-0.0328570000000001
443.4000000000001,-0.0351320000000001
443.6,-0.0360770000000001
443.80000000000007,-0.0371830000000001
444.0,-0.0375080000000001
444.2000000000001,-0.0379640000000001
444.4000000000001,-0.0368050000000002
444.6,-0.0356250000000001
444.80000000000007,-0.0347930000000001
445.0,-0.0351930000000001
445.2000000000001,-0.0360270000000001
445.4000000000001,-0.0363350000000001
445.6,-0.0375440000000001
445.80000000000007,-0.037365
446.0,-0.0365530000000001
446.2000000000001,-0.0352360000000001
446.4000000000001,-0.0360350000000001
446.6,-0.036508
446.80000000000007,-0.0387100000000001
447.0,-0.0397760000000001
447.2000000000001,-0.0400850000000001
447.4000000000001,-0.0381340000000001
447.6,-0.0375020000000001
447.80000000000007,-0.0382060000000001
448.0,-0.0375180000000001
448.2000000000001,-0.0372780000000001
448.4000000000001,-0.0384740000000001
448.6,-0.0368510000000001
448.80000000000007,-0.0338600000000001
449.0,-0.0325540000000001
449.2000000000001,-0.0330480000000001
449.4000000000001,-0.0327010000000002
449.6,-0.0324470000000001
449.80000000000007,-0.0319860000000001
450.0,-0.0340010000000001
450.2000000000001,-0.0339930000000001
450.4000000000001,-0.0340920000000001
450.6,-0.0355760000000001
450.80000000000007,-0.0361330000000001
451.0,-0.0332040000000001
451.2000000000001,-0.0314720000000001
451.4000000000001,-0.0317730000000001
451.6,-0.0312130000000001
451.80000000000007,-0.0318090000000002
452.0,-0.0348780000000001
452.2000000000001,-0.0383480000000001
452.4000000000001,-0.0395830000000001
452.6,-0.0408000000000001
452.80000000000007,-0.0417550000000001
453.0,-0.0404630000000001
453.2000000000001,-0.0379770000000001
453.4000000000001,-0.0355830000000001
453.6,-0.0352250000000001
453.80000000000007,-0.0354380000000001
454.0,-0.0382950000000001
454.2000000000001,-0.0421620000000001
454.4000000000001,-0.0465550000000001
454.6,-0.0481220000000001
454.80000000000007,-0.0481490000000001
455.0,-0.0463140000000001
455.2000000000001,-0.0435430000000001
455.4000000000001,-0.0390610000000001
455.6,-0.0366190000000001
455.80000000000007,-0.0372850000000001
456.0,-0.0384990000000001
456.2000000000001,-0.0395600000000001
456.4000000000001,-0.0409310000000001
456.6,-0.0402640000000001
456.80000000000007,-0.0393300000000002
457.0,-0.0392770000000001
457.2000000000001,-0.0403630000000001
457.4000000000001,-0.0427350000000001
457.6,-0.0459350000000001
457.80000000000007,-0.0453110000000001
458.0,-0.042697
458.2000000000001,-0.0396900000000001
458.4000000000001,-0.0357730000000001
458.6,-0.0351290000000001
458.80000000000007,-0.0370070000000001
459.0,-0.0394870000000001
459.2000000000001,-0.0391260000000001
459.4000000000001,-0.0407220000000001
459.6,-0.0383340000000002
459.80000000000007,-0.0358090000000002
460.0,-0.0337980000000001
460.2000000000001,-0.0353390000000001
460.4000000000001,-0.0355760000000001
460.6,-0.0375030000000001
460.80000000000007,-0.0380260000000001
461.0,-0.0381780000000001
461.2000000000001,-0.0356450000000001
461.4000000000001,-0.0330210000000001
461.6,-0.0303860000000001
461.80000000000007,-0.0298390000000001
462.0,-0.0296290000000001
462.2000000000001,-0.0306120000000001
462.4000000000001,-0.0327470000000001
462.6,-0.0353460000000001
462.80000000000007,-0.0361340000000001
463.0,-0.0374050000000001
463.2000000000001,-0.0372340000000001
463.4000000000001,-0.0375250000000001
463.6,-0.0368520000000001
463.80000000000007,-0.0363240000000001
464.0,-0.0359150000000001
464.2000000000001,-0.0383200000000001
464.4000000000001,-0.0389690000000001
464.6,-0.0389500000000001
464.80000000000007,-0.0387700000000001
465.0,-0.0373120000000001
465.2000000000001,-0.0346110000000001
465.4000000000001,-0.0347240000000002
465.6,-0.0355400000000001
465.80000000000007,-0.0368310000000001
466.0,-0.038033
466.2000000000001,-0.0401870000000001
466.4000000000001,-0.0398120000000001
466.6,-0.0408660000000001
466.80000000000007,-0.0414470000000001
467.0,-0.0411000000000001
467.2000000000001,-0.0393720000000001
467.4000000000001,-0.0394140000000001
467.6,-0.0376120000000002
467.80000000000007,-0.0369380000000001
468.0,-0.0373660000000001
468.2000000000001,-0.0379150000000001
468.4000000000001,-0.0373420000000001
468.6,-0.0383660000000001
468.80000000000007,-0.0414370000000001
469.0,-0.0449370000000001
469.2000000000001,-0.0478580000000001
469.4000000000001,-0.0486840000000001
469.6,-0.0480010000000001
469.80000000000007,-0.0425300000000001
470.0,-0.0374670000000001
470.2000000000001,-0.0346060000000001
470.4000000000001,-0.0334020000000001
470.6,-0.0322020000000001
470.80000000000007,-0.0338010000000001
471.0,-0.0348460000000001
471.2000000000001,-0.0345730000000001
471.4000000000001,-0.034454
471.6,-0.0364530000000001
471.80000000000007,-0.0376230000000001
472.0,-0.0399280000000001
472.2000000000001,-0.0391880000000001
472.4000000000001,-0.0385760000000001
472.6,-0.0368580000000001
472.80000000000007,-0.0354260000000001
473.0,-0.0328340000000001
473.2000000000001,-0.0344820000000001
473.4000000000001,-0.0376100000000001
473.6,-0.0376440000000001
473.80000000000007,-0.0392570000000001
474.0,-0.0413660000000001
474.2000000000001,-0.0415180000000001
474.4000000000001,-0.0397200000000002
474.6,-0.0393640000000001
474.80000000000007,-0.0367310000000001
475.0,-0.0340790000000001
475.2000000000001,-0.0337040000000001
475.4000000000001,-0.0337460000000001
475.6,-0.0360160000000001
475.80000000000007,-0.0382150000000001
476.0,-0.0413320000000001
476.2000000000001,-0.0418830000000001
476.4000000000001,-0.0403700000000001
476.6,-0.0361120000000001
476.80000000000007,-0.0327920000000001
477.0,-0.0302660000000001
477.2000000000001,-0.02879
477.4000000000001,-0.0294910000000001
477.6,-0.0307690000000001
477.80000000000007,-0.0330050000000001
478.0,-0.0349360000000001
478.2000000000001,-0.0372640000000001
478.4000000000001,-0.0388170000000001
478.6,-0.0416980000000001
478.80000000000007,-0.0421940000000001
479.0,-0.0405330000000001
479.2000000000001,-0.0384950000000001
479.4000000000001,-0.0363990000000001
479.6,-0.0343220000000001
479.80000000000007,-0.0334660000000001
480.0,-0.0330850000000001
480.2000000000001,-0.0329370000000001
480.4000000000001,-0.0347220000000001
480.6,-0.0368440000000001
480.80000000000007,-0.0380350000000001
481.0,-0.0406350000000002
481.2000000000001,-0.0435180000000001
481.4000000000001,-0.0448210000000001
481.6,-0.0433940000000001
481.80000000000007,-0.0432780000000001
482.0,-0.0418680000000001
482.2000000000001,-0.0396810000000001
482.4000000000001,-0.0379170000000002
482.6,-0.0381760000000001
482.80000000000007,-0.0381350000000001
483.0,-0.0365130000000001
483.2000000000001,-0.0343780000000001
483.4000000000001,-0.0331610000000001
483.6,-0.0336500000000001
483.80000000000007,-0.0342770000000001
484.0,-0.0371930000000001
484.2000000000001,-0.0411460000000001
484.4000000000001,-0.0437890000000001
484.6,-0.0448870000000001
484.80000000000007,-0.044527
485.0,-0.0428880000000001
485.2000000000001,-0.0408230000000001
485.4000000000001,-0.038087
485.6,-0.035481
485.80000000000007,-0.0352390000000001
486.0,-0.0348420000000001
486.2000000000001,-0.0350000000000001
486.4000000000001,-0.0365910000000001
486.6,-0.0382660000000001
486.80000000000007,-0.0387800000000001
487.0,-0.0391980000000001
487.2000000000001,-0.0387290000000001
487.4000000000001,-0.0390310000000001
487.6,-0.0421570000000001
487.80000000000007,-0.0450240000000001
488.0,-0.0470650000000001
488.2000000000001,-0.0490380000000001
488.4000000000001,-0.0484630000000001
488.6,-0.0460770000000001
488.80000000000007,-0.0431360000000001
489.0,-0.0404450000000001
489.2000000000001,-0.0378260000000001
489.4000000000001,-0.0381610000000001
489.6,-0.0384710000000001
489.80000000000007,-0.0394940000000001
490.0,-0.0398170000000001
490.2000000000001,-0.0398820000000001
490.4000000000001,-0.038701
490.6,-0.0366280000000001
490.80000000000007,-0.0349030000000001
491.0,-0.0358410000000001
491.2000000000001,-0.0393550000000001
491.4000000000001,-0.0428650000000001
491.6,-0.0444060000000001
491.80000000000007,-0.0444940000000001
492.0,-0.0439000000000001
492.2000000000001,-0.0425170000000001
492.4000000000001,-0.0400350000000001
492.6,-0.0374520000000001
492.80000000000007,-0.0363860000000001
493.0,-0.0373760000000001
493.2000000000001,-0.0397350000000001
493.4000000000001,-0.0404260000000001
493.6,-0.0423090000000001
493.80000000000007,-0.0441860000000001
494.0,-0.0443620000000001
494.2000000000001,-0.0418380000000001
494.4000000000001,-0.0407320000000001
494.6,-0.0404150000000002
494.80000000000007,-0.0398370000000001
495.0,-0.0389760000000001
495.2000000000001,-0.0400950000000001
495.4000000000001,-0.0428130000000001
495.6,-0.0441420000000001
495.80000000000007,-0.0446110000000001
496.0,-0.0449540000000001
496.2000000000001,-0.0432500000000001
496.4000000000001,-0.0404950000000001
496.6,-0.0397970000000001
496.80000000000007,-0.0375530000000001
497.0,-0.0355690000000001
497.2000000000001,-0.0355660000000001
497.4000000000001,-0.0385790000000001
497.6,-0.0387200000000002
497.80000000000007,-0.0416770000000001
498.0,-0.0427070000000001
498.2000000000001,-0.0427340000000001
498.4000000000001,-0.0412480000000001
498.6,-0.041558
498.80000000000007,-0.0408710000000001
499.0,-0.0418150000000001
499.2000000000001,-0.0432920000000001
499.4000000000001,-0.0443080000000001
499.6,-0.0443380000000001
499.80000000000007,-0.0450360000000001
500.0,-0.04572
500.2000000000001,-0.0447570000000001
500.4000000000001,-0.04189
500.6,-0.0401040000000001
500.80000000000007,-0.0377920000000001
501.0,-0.0363470000000001
501.2000000000001,-0.0349350000000001
501.4000000000001,-0.0347180000000001
501.6,-0.0359620000000001
501.80000000000007,-0.0378820000000001
502.0,-0.0392300000000001
502.2000000000001,-0.0406650000000001
502.4000000000001,-0.0428850000000001
502.6,-0.0428380000000001
502.80000000000007,-0.0417330000000001
503.0,-0.0390130000000001
503.2000000000001,-0.0370740000000001
503.4000000000001,-0.0355870000000001
503.6,-0.0359530000000001
503.80000000000007,-0.037504
504.0,-0.0414930000000001
504.2000000000001,-0.0456220000000001
504.4000000000001,-0.0490710000000002
504.6,-0.0491040000000001
504.80000000000007,-0.0482620000000001
505.0,-0.0448470000000001
505.2000000000001,-0.0412340000000001
505.4000000000001,-0.0395420000000001
505.6,-0.0389050000000001
505.80000000000007,-0.0396170000000001
506.0,-0.0418690000000001
506.2000000000001,-0.0444520000000001
506.4000000000001,-0.0462660000000001
506.6,-0.0489590000000002
506.80000000000007,-0.0487660000000002
507.0,-0.0477230000000001
507.2000000000001,-0.0466110000000001
507.4000000000001,-0.0445110000000001
507.6,-0.0422070000000001
507.8,-0.0429820000000001
508.00000000000006,-0.0464570000000001
508.2000000000001,-0.0483460000000001
508.40000000000015,-0.0492370000000002
508.6,-0.0496370000000001
508.8,-0.0485020000000001
509.00000000000006,-0.0450760000000001
509.2000000000001,-0.0431290000000001
509.40000000000015,-0.0422130000000001
509.6,-0.0436900000000001
509.8,-0.0452030000000001
510.00000000000006,-0.0459280000000001
510.2000000000001,-0.045361
510.40000000000015,-0.0431820000000001
510.6,-0.0410780000000001
510.8,-0.0399270000000001
511.00000000000006,-0.0394750000000001
511.2000000000001,-0.0387360000000001
511.40000000000015,-0.0380880000000001
511.6,-0.0376240000000001
511.8,-0.0370770000000001
512.0,-0.0355570000000001
512.2,-0.0335330000000001
512.4000000000001,-0.0340970000000001
512.5999999999999,-0.0348610000000001
512.8,-0.0341230000000001
513.0,-0.0341840000000001
513.2,-0.037562
513.4000000000001,-0.0411240000000001
513.5999999999999,-0.0419240000000001
513.8,-0.0456970000000001
514.0,-0.0507050000000001
514.2,-0.0532830000000001
514.4000000000001,-0.0519770000000001
514.5999999999999,-0.0512950000000002
514.8,-0.0480810000000001
515.0,-0.0450200000000001
515.2,-0.0400240000000001
515.4000000000001,-0.037311
515.5999999999999,-0.0357840000000001
515.8,-0.0378730000000001
516.0,-0.0386210000000001
516.2,-0.0424040000000001
516.4000000000001,-0.0444990000000001
516.5999999999999,-0.0460440000000001
516.8,-0.0439030000000001
517.0,-0.0415300000000001
517.2,-0.0402220000000002
517.4000000000001,-0.0408410000000001
517.5999999999999,-0.0422080000000001
517.8,-0.0446340000000001
518.0,-0.0478870000000001
518.2,-0.0488930000000001
518.4000000000001,-0.0502500000000001
518.5999999999999,-0.0496030000000001
518.8,-0.0492440000000001
519.0,-0.0471660000000001
519.2,-0.0471950000000001
519.4000000000001,-0.0447050000000001
519.5999999999999,-0.0430420000000001
519.8,-0.0404570000000001
520.0,-0.0410320000000001
520.2,-0.040751
520.4000000000001,-0.0402680000000001
520.5999999999999,-0.0384620000000001
520.8,-0.0383300000000002
521.0,-0.0374300000000001
521.2,-0.0369430000000001
521.4000000000001,-0.0376380000000001
521.5999999999999,-0.0398150000000001
521.8,-0.0400690000000001
522.0,-0.0400740000000001
522.2,-0.0388780000000001
522.4000000000001,-0.0391440000000001
522.5999999999999,-0.0403810000000001
522.8,-0.0416580000000001
523.0,-0.0420640000000001
523.2,-0.0441030000000001
523.4000000000001,-0.0461430000000001
523.5999999999999,-0.0479540000000001
523.8,-0.0485920000000001
524.0,-0.0504370000000001
524.2,-0.0501350000000001
524.4000000000001,-0.0498310000000001
524.5999999999999,-0.0482740000000001
524.8,-0.0487020000000001
525.0,-0.0475610000000001
525.2,-0.0488800000000001
525.4000000000001,-0.0480340000000001
525.5999999999999,-0.0474430000000001
525.8,-0.0438180000000001
526.0,-0.0419370000000001
526.2,-0.0387990000000001
526.4000000000001,-0.0395060000000001
526.5999999999999,-0.0402080000000001
526.8,-0.0423220000000001
527.0,-0.0417200000000002
527.2,-0.0409410000000001
527.4000000000001,-0.0383890000000001
527.5999999999999,-0.037118
527.8,-0.0373080000000001
528.0,-0.0393150000000001
528.2,-0.0447970000000002
528.4000000000001,-0.0503820000000001
528.5999999999999,-0.0524410000000001
528.8,-0.0523740000000001
529.0,-0.0515050000000001
529.2,-0.0477120000000002
529.4000000000001,-0.0423530000000001
529.5999999999999,-0.0392710000000001
529.8,-0.0371700000000001
530.0,-0.038504
530.2,-0.0403630000000001
530.4000000000001,-0.0423620000000001
530.5999999999999,-0.0424070000000001
530.8,-0.0443030000000002
531.0,-0.0432660000000001
531.2,-0.0408260000000001
531.4000000000001,-0.0364590000000001
531.5999999999999,-0.0351380000000001
531.8,-0.0338040000000001
532.0,-0.0347390000000001
532.2,-0.0350660000000001
532.4000000000001,-0.0384720000000001
532.5999999999999,-0.0402330000000001
532.8,-0.0441730000000001
533.0,-0.0478510000000002
533.2,-0.0516540000000002
533.4000000000001,-0.0530740000000001
533.5999999999999,-0.0520350000000001
533.8,-0.0482120000000001
534.0,-0.0432390000000001
534.2,-0.0389270000000001
534.4000000000001,-0.0355020000000001
534.5999999999999,-0.0376630000000001
534.8,-0.0418010000000002
535.0,-0.0467460000000001
535.2,-0.0479270000000001
535.4000000000001,-0.0498710000000001
535.5999999999999,-0.0494130000000001
535.8,-0.048496
536.0,-0.0458680000000001
536.2,-0.0468280000000002
536.4000000000001,-0.0478000000000001
536.5999999999999,-0.0466310000000002
536.8,-0.0442030000000001
537.0,-0.0439840000000001
537.2,-0.0450500000000001
537.4000000000001,-0.0453250000000001
537.5999999999999,-0.0479780000000001
537.8,-0.0499420000000001
538.0,-0.0513180000000002
538.2,-0.0511750000000001
538.4000000000001,-0.0514660000000001
538.5999999999999,-0.0514230000000001
538.8,-0.0513240000000001
539.0,-0.0503390000000001
539.2,-0.0491170000000001
539.4000000000001,-0.0479030000000001
539.5999999999999,-0.0474040000000001
539.8,-0.0471050000000001
540.0,-0.0467020000000001
540.2,-0.0460860000000001
540.4000000000001,-0.0467300000000001
540.5999999999999,-0.0458150000000001
540.8,-0.0460750000000002
541.0,-0.0458420000000001
541.2,-0.0457590000000001
541.4000000000001,-0.0443820000000001
541.5999999999999,-0.0442440000000001
541.8,-0.0439100000000001
542.0,-0.0442650000000001
542.2,-0.0449100000000001
542.4000000000001,-0.0444380000000002
542.5999999999999,-0.0445060000000001
542.8,-0.0432910000000001
543.0,-0.0429490000000001
543.2,-0.0433050000000001
543.4000000000001,-0.0454780000000001
543.5999999999999,-0.0458760000000001
543.8,-0.0459730000000001
544.0,-0.0449740000000001
544.2,-0.0438490000000001
544.4000000000001,-0.0422870000000001
544.5999999999999,-0.0416710000000001
544.8,-0.0421880000000001
545.0,-0.0418170000000001
545.2,-0.0421560000000001
545.4000000000001,-0.0420400000000001
545.5999999999999,-0.0408180000000001
545.8,-0.0389250000000001
546.0,-0.0401820000000001
546.2,-0.04228
546.4000000000001,-0.0439200000000001
546.5999999999999,-0.0457290000000001
546.8,-0.0493620000000001
547.0,-0.0497800000000001
547.2,-0.0487560000000001
547.4000000000001,-0.0495150000000002
547.5999999999999,-0.0524940000000001
547.8,-0.0538690000000001
548.0,-0.0556790000000001
548.2,-0.0558580000000001
548.4000000000001,-0.0536550000000001
548.5999999999999,-0.0497330000000001
548.8,-0.0453190000000001
549.0,-0.0424020000000001
549.2,-0.0413970000000001
549.4000000000001,-0.0415880000000001
549.5999999999999,-0.0412120000000001
549.8,-0.0423850000000001
550.0,-0.0426090000000001
550.2,-0.0421750000000001
550.4000000000001,-0.0421810000000001
550.5999999999999,-0.0429870000000001
550.8,-0.0441700000000001
551.0,-0.0437010000000001
551.2,-0.0436410000000001
551.4000000000001,-0.0439950000000001
551.5999999999999,-0.0444010000000001
551.8,-0.0435250000000001
552.0,-0.0439790000000001
552.2,-0.0445280000000001
552.4000000000001,-0.0456610000000001
552.5999999999999,-0.0464320000000001
552.8,-0.0479750000000001
553.0,-0.0494370000000001
553.2,-0.0489190000000001
553.4000000000001,-0.0473560000000001
553.5999999999999,-0.0462960000000001
553.8,-0.0433670000000001
554.0,-0.0411360000000001
554.2,-0.0417700000000001
554.4000000000001,-0.0422590000000001
554.5999999999999,-0.0430400000000001
554.8,-0.0447820000000001
555.0,-0.0467080000000001
555.2,-0.0482380000000001
555.4000000000001,-0.0496760000000001
555.5999999999999,-0.0507820000000001
555.8,-0.0506010000000001
556.0,-0.0497440000000001
556.2,-0.0484280000000001
556.4000000000001,-0.0485040000000001
556.5999999999999,-0.0486150000000001
556.8,-0.0493500000000001
557.0,-0.0493630000000001
557.2,-0.0488150000000001
557.4000000000001,-0.0463310000000001
557.5999999999999,-0.0440430000000001
557.8,-0.0428960000000001
558.0,-0.0432840000000001
558.2,-0.0432360000000001
558.4000000000001,-0.0444780000000001
558.5999999999999,-0.0461970000000001
558.8,-0.0455360000000001
559.0,-0.0447670000000001
559.2,-0.0443280000000001
559.4000000000001,-0.0432920000000001
559.5999999999999,-0.0411290000000001
559.8,-0.0420850000000001
560.0,-0.042778
560.2,-0.0440130000000001
560.4000000000001,-0.0457570000000001
560.5999999999999,-0.0490590000000001
560.8,-0.0509790000000001
561.0,-0.0506270000000002
561.2,-0.0493850000000001
561.4000000000001,-0.0487280000000001
561.5999999999999,-0.0485080000000001
561.8,-0.0478810000000001
562.0,-0.0492290000000001
562.2,-0.0511380000000001
562.4000000000001,-0.0509770000000001
562.5999999999999,-0.0501000000000001
562.8,-0.0498510000000002
563.0,-0.0495790000000001
563.2,-0.0476240000000001
563.4000000000001,-0.0469610000000001
563.5999999999999,-0.0446420000000001
563.8,-0.0439730000000001
564.0,-0.0426280000000001
564.2,-0.0439420000000001
564.4000000000001,-0.0433430000000001
564.5999999999999,-0.0440260000000001
564.8,-0.0424110000000002
565.0,-0.0409250000000001
565.2,-0.0397940000000001
565.4000000000001,-0.0432570000000001
565.5999999999999,-0.0476280000000001
565.8,-0.0504860000000001
566.0,-0.0512350000000001
566.2,-0.0496490000000001
566.4000000000001,-0.0459700000000001
566.5999999999999,-0.0415230000000002
566.8,-0.0410330000000001
567.0,-0.0429870000000001
567.2,-0.0472960000000001
567.4000000000001,-0.0504510000000001
567.5999999999999,-0.0522900000000001
567.8,-0.0513790000000001
568.0,-0.0508110000000001
568.2,-0.0479850000000001
568.4000000000001,-0.0453020000000001
568.5999999999999,-0.0431160000000001
568.8,-0.0428400000000001
569.0,-0.0424400000000001
569.2,-0.0430380000000001
569.4000000000001,-0.0437730000000001
569.6000000000001,-0.0433650000000001
569.8,-0.0429060000000001
570.0,-0.0417050000000001
570.2,-0.0416540000000001
570.4000000000001,-0.0435580000000001
570.6000000000001,-0.0479710000000001
570.8,-0.0513420000000001
571.0,-0.0552720000000001
571.2,-0.0577880000000001
571.4000000000001,-0.0573140000000002
571.6000000000001,-0.0564750000000001
571.8,-0.0556880000000001
572.0,-0.0561940000000001
572.2,-0.0571170000000001
572.4000000000001,-0.0577540000000001
572.6000000000001,-0.0575980000000001
572.8,-0.0578900000000001
573.0,-0.0565560000000001
573.2,-0.0549890000000001
573.4000000000001,-0.0543230000000001
573.6000000000001,-0.0536010000000001
573.8,-0.0517710000000001
574.0,-0.049994
574.2,-0.0489150000000001
574.4000000000001,-0.0496130000000001
574.6000000000001,-0.0515570000000001
574.8,-0.0528170000000001
575.0,-0.0534400000000001
575.2,-0.0528020000000001
575.4000000000001,-0.0506300000000001
575.6000000000001,-0.0466590000000001
575.8,-0.0435160000000001
576.0,-0.0436700000000001
576.2,-0.0440990000000001
576.4000000000001,-0.0459010000000001
576.6000000000001,-0.0470700000000001
576.8,-0.0482700000000001
577.0,-0.0459880000000001
577.2,-0.0453920000000001
577.4000000000001,-0.0439080000000001
577.6000000000001,-0.0454920000000002
577.8,-0.0468580000000001
578.0,-0.0486040000000002
578.2,-0.0485010000000001
578.4000000000001,-0.0494260000000001
578.6000000000001,-0.0490980000000002
578.8,-0.0484480000000001
579.0,-0.0482900000000001
579.2,-0.0507650000000001
579.4000000000001,-0.0508030000000001
579.6000000000001,-0.0505870000000001
579.8,-0.0501800000000001
580.0,-0.0508090000000001
580.2,-0.0487410000000001
580.4000000000001,-0.0490120000000001
580.6000000000001,-0.0479090000000002
580.8,-0.0483360000000001
581.0,-0.0487540000000001
581.2,-0.0513370000000001
581.4000000000001,-0.0508520000000001
581.6000000000001,-0.050967
581.8,-0.0489040000000001
582.0,-0.0475730000000002
582.2,-0.0438510000000001
582.4000000000001,-0.0418170000000001
582.6000000000001,-0.0398410000000001
582.8,-0.0413720000000001
583.0,-0.0408720000000001
583.2,-0.0408180000000001
583.4000000000001,-0.0416690000000001
583.6000000000001,-0.0450680000000001
583.8,-0.0472990000000002
584.0,-0.0504260000000001
584.2,-0.0543390000000001
584.4000000000001,-0.0569040000000001
584.6000000000001,-0.0562380000000001
584.8,-0.0546470000000001
585.0,-0.0523520000000001
585.2,-0.0495550000000001
585.4000000000001,-0.0476200000000001
585.6000000000001,-0.0470980000000001
585.8,-0.0467250000000001
586.0,-0.0474810000000001
586.2,-0.0490480000000002
586.4000000000001,-0.0502280000000001
586.6000000000001,-0.0509990000000001
586.8,-0.0519820000000001
587.0,-0.0528830000000001
587.2,-0.0540490000000001
587.4000000000001,-0.0549130000000001
587.6000000000001,-0.0549100000000001
587.8,-0.0553230000000001
588.0,-0.0556410000000001
588.2,-0.0549110000000001
588.4000000000001,-0.0555380000000002
588.6000000000001,-0.0557290000000001
588.8,-0.0553260000000001
589.0,-0.0536940000000001
589.2,-0.0535520000000001
589.4000000000001,-0.0517550000000001
589.6000000000001,-0.05077
589.8,-0.0500550000000001
590.0,-0.0498880000000001
590.2,-0.0483460000000001
590.4000000000001,-0.0481460000000001
590.6000000000001,-0.0477490000000001
590.8,-0.0470050000000001
591.0,-0.0482670000000001
591.2,-0.0497060000000001
591.4000000000001,-0.0499010000000001
591.6000000000001,-0.0477800000000001
591.8,-0.0461070000000001
592.0,-0.0452900000000001
592.2,-0.0453410000000001
592.4000000000001,-0.0459840000000001
592.6000000000001,-0.0488140000000001
592.8,-0.0510080000000001
593.0,-0.0496400000000001
593.2,-0.0461960000000001
593.4000000000001,-0.0445210000000001
593.6000000000001,-0.0440490000000001
593.8,-0.0448500000000001
594.0,-0.0453760000000001
594.2,-0.0449340000000001
594.4000000000001,-0.0443180000000001
594.6000000000001,-0.0443760000000001
594.8,-0.044083
595.0,-0.0439730000000001
