Time (s),Shift (nm)
0.0,0.0
0.2000000000000454,-0.0005460000000001
0.4000000000000341,-0.0002760000000001
0.6000000000000227,0.001576
0.8000000000000114,0.0018139999999999
1.0,0.0013549999999999
1.2000000000000457,0.0016169999999999
1.400000000000034,0.0012469999999999
1.6000000000000227,0.0019689999999998
1.8000000000000114,0.0009519999999998
2.0,0.0013819999999999
2.200000000000045,0.001657
2.400000000000034,0.0034669999999998
2.6000000000000227,0.0043149999999998
2.800000000000012,0.00461
3.0,0.0040549999999999
3.200000000000045,0.0033129999999998
3.400000000000034,0.0025479999999999
3.6000000000000227,0.0011149999999999
3.8000000000000114,0.0004059999999999
4.0,-0.0005700000000001
4.2000000000000455,-0.0004319999999999
4.400000000000034,-0.0001550000000001
4.600000000000023,0.0011079999999998
4.800000000000011,0.002742
5.0,0.0040549999999999
5.2000000000000455,0.006494
5.400000000000034,0.0070019999999999
5.600000000000023,0.0060909999999998
5.800000000000011,0.0056939999999998
6.0,0.0045869999999998
6.2000000000000455,0.002491
6.400000000000034,0.002402
6.600000000000023,0.0035379999999998
6.800000000000011,0.0047209999999999
7.0,0.0059449999999998
7.2000000000000455,0.0058869999999999
7.400000000000034,0.0067709999999998
7.600000000000023,0.0078099999999998
7.800000000000011,0.0075979999999999
8.0,0.0068789999999998
8.200000000000045,0.006475
8.400000000000034,0.004718
8.600000000000023,0.0013399999999998
8.800000000000011,-0.0014739999999999
9.0,-0.0016880000000001
9.200000000000044,0.0001439999999999
9.400000000000034,0.0024389999999998
9.600000000000025,0.0062759999999999
9.800000000000011,0.0090249999999998
10.0,0.0104949999999999
10.200000000000044,0.0084569999999999
10.400000000000034,0.0076099999999998
10.600000000000025,0.006645
10.800000000000011,0.0077159999999998
11.0,0.0059369999999998
11.200000000000044,0.0050759999999998
11.400000000000034,0.0023429999999999
11.600000000000025,0.0007219999999998
11.800000000000011,-0.0019710000000001
12.0,-0.0002280000000001
12.200000000000044,0.0026479999999999
12.400000000000034,0.005371
12.600000000000025,0.0058039999999999
12.800000000000011,0.0054479999999998
13.0,0.0033449999999999
13.200000000000044,0.00024
13.400000000000034,-0.0042600000000001
13.600000000000025,-0.0064190000000001
13.800000000000011,-0.006377
14.0,-0.006296
14.200000000000044,-0.007349
14.400000000000034,-0.0057679999999999
14.600000000000025,-0.0039820000000001
14.800000000000011,-0.00326
15.0,-0.002458
15.200000000000044,0.000491
15.400000000000034,0.0027159999999999
15.600000000000025,0.0033259999999999
15.800000000000011,0.002653
16.0,0.0016159999999998
16.200000000000045,0.0001529999999998
16.400000000000034,-0.002669
16.600000000000023,-0.0054009999999999
16.80000000000001,-0.005106
17.0,-0.004016
17.200000000000045,-0.002143
17.400000000000034,-0.0009879999999999
17.600000000000023,-0.0001550000000001
17.80000000000001,-0.001621
18.0,-0.001781
18.200000000000045,-0.004183
18.400000000000038,-0.004245
18.600000000000023,-0.0040040000000001
18.80000000000001,-0.003646
19.0,-0.0053910000000001
19.200000000000045,-0.005295
19.400000000000038,-0.0070149999999999
19.600000000000023,-0.0077260000000001
19.80000000000001,-0.006747
20.0,-0.004221
20.200000000000045,-0.001783
20.400000000000038,0.0030729999999998
20.600000000000023,0.005525
20.80000000000001,0.0056339999999999
21.0,0.003946
21.200000000000045,0.0020789999999999
21.400000000000038,9.999999999177334e-07
21.600000000000023,-0.0018960000000001
21.80000000000001,-0.003452
22.0,-0.0064319999999999
22.200000000000045,-0.0074580000000001
22.400000000000038,-0.0094340000000001
22.600000000000023,-0.010153
22.80000000000001,-0.010623
23.0,-0.0087160000000001
23.200000000000045,-0.006869
23.400000000000038,-0.0026160000000001
23.600000000000023,0.0001739999999998
23.80000000000001,0.0019779999999998
24.0,0.0021359999999999
24.200000000000045,0.002977
24.400000000000038,0.0023689999999998
24.600000000000023,0.0021519999999999
24.80000000000001,0.0018609999999998
25.0,0.0041799999999998
25.200000000000045,0.0044459999999999
25.400000000000038,0.0034009999999999
25.600000000000023,0.0024469999999998
25.80000000000001,0.0016189999999998
26.0,-0.000329
26.200000000000045,-0.0012800000000001
26.400000000000038,-0.0017610000000001
26.600000000000023,-0.000866
26.80000000000001,0.0014909999999999
27.0,0.0028969999999999
27.200000000000045,0.0021719999999998
27.400000000000038,0.0012419999999999
27.600000000000023,-0.0009320000000001
27.80000000000001,-0.002976
28.0,-0.0046870000000001
28.200000000000045,-0.0051830000000001
28.400000000000038,-0.005414
28.600000000000023,-0.004429
28.80000000000001,-0.0055899999999999
29.0,-0.006226
29.200000000000045,-0.0057740000000001
29.400000000000038,-0.0041310000000001
29.600000000000023,-0.002391
29.80000000000001,-0.0002330000000001
30.0,0.0013499999999999
30.200000000000045,-2.199999999996649e-05
30.400000000000038,-0.0017759999999999
30.600000000000023,-0.0030640000000001
30.80000000000001,-0.0021029999999999
31.0,-0.0028480000000001
31.200000000000045,-0.002148
31.400000000000038,-0.0031270000000001
31.600000000000023,-0.0049510000000001
31.80000000000001,-0.0076150000000001
32.0,-0.0093130000000001
32.200000000000045,-0.010221
32.400000000000034,-0.0094610000000001
32.60000000000002,-0.0079
32.80000000000001,-0.0063790000000001
33.0,-0.0028050000000001
33.200000000000045,-0.0019550000000001
33.400000000000034,-0.0022090000000001
33.60000000000002,-0.002869
33.80000000000001,-0.0020839999999999
34.0,-0.004329
34.200000000000045,-0.0052450000000001
34.400000000000034,-0.0071130000000001
34.60000000000002,-0.00801
34.80000000000001,-0.009886
35.0,-0.009946
35.200000000000045,-0.0098949999999999
35.400000000000034,-0.007066
35.60000000000002,-0.0045080000000001
35.80000000000001,-0.002089
36.0,-6.499999999998174e-05
36.200000000000045,0.0010329999999998
36.400000000000034,-0.0008879999999999
36.60000000000002,-0.001978
36.80000000000001,-0.0036150000000001
37.0,-0.0035850000000001
37.200000000000045,-0.0035709999999999
37.400000000000034,-0.0012960000000001
37.60000000000002,-0.0025080000000001
37.80000000000001,-0.004148
38.0,-0.006032
38.200000000000045,-0.0074400000000001
38.400000000000034,-0.0081999999999999
38.60000000000002,-0.0087030000000001
38.80000000000001,-0.0077010000000001
39.0,-0.0064060000000001
39.200000000000045,-0.0055750000000001
39.400000000000034,-0.006421
39.60000000000002,-0.007357
39.80000000000001,-0.0095709999999999
40.0,-0.0138850000000001
40.200000000000045,-0.0159550000000001
40.400000000000034,-0.01892
40.60000000000002,-0.0182520000000001
40.80000000000001,-0.016796
41.0,-0.014882
41.200000000000045,-0.013444
41.400000000000034,-0.0120930000000001
41.60000000000002,-0.0125680000000001
41.80000000000001,-0.013087
42.0,-0.0125570000000001
42.200000000000045,-0.0121390000000001
42.400000000000034,-0.011403
42.60000000000002,-0.010477
42.80000000000001,-0.008933
43.0,-0.0078180000000001
43.200000000000045,-0.0081919999999999
43.400000000000034,-0.0075439999999999
43.60000000000002,-0.008693
43.80000000000001,-0.010269
44.0,-0.0114659999999999
44.200000000000045,-0.010135
44.400000000000034,-0.008958
44.60000000000002,-0.0057120000000001
44.80000000000001,-0.003284
45.0,-0.0019390000000001
45.200000000000045,-0.0019770000000001
45.400000000000034,-0.002078
45.60000000000002,-0.0047099999999999
45.80000000000001,-0.0060900000000001
46.0,-0.007236
46.200000000000045,-0.0074310000000001
46.400000000000034,-0.009279
46.60000000000002,-0.0105399999999999
46.80000000000001,-0.011724
47.0,-0.01157
47.200000000000045,-0.0122870000000001
47.400000000000034,-0.0125090000000001
47.60000000000002,-0.0112769999999999
47.80000000000001,-0.0101580000000001
48.0,-0.009443
48.200000000000045,-0.00886
48.400000000000034,-0.0058880000000001
48.60000000000002,-0.0037090000000001
48.80000000000001,-0.003676
49.0,-0.0065250000000001
49.200000000000045,-0.00739
49.400000000000034,-0.0090190000000001
49.60000000000002,-0.0100850000000001
49.80000000000001,-0.010067
50.0,-0.006272
50.200000000000045,-0.006637
50.400000000000034,-0.0060930000000001
50.60000000000002,-0.0053510000000001
50.80000000000001,-0.0049339999999999
51.0,-0.0074320000000001
51.200000000000045,-0.00869
51.400000000000034,-0.0108110000000001
51.60000000000002,-0.013462
51.80000000000001,-0.0131970000000001
52.0,-0.011379
52.200000000000045,-0.0082220000000001
52.400000000000034,-0.006715
52.60000000000002,-0.0056020000000001
52.80000000000001,-0.0060090000000001
53.0,-0.0059600000000001
53.200000000000045,-0.0056820000000001
53.400000000000034,-0.004909
53.60000000000002,-0.003262
53.80000000000001,-0.0038550000000001
54.0,-0.0045399999999999
54.200000000000045,-0.0056390000000001
54.400000000000034,-0.005667
54.60000000000002,-0.006563
54.80000000000001,-0.005827
55.0,-0.005695
55.200000000000045,-0.006685
55.400000000000034,-0.009643
55.60000000000002,-0.009994
55.80000000000001,-0.009881
56.0,-0.0093260000000001
56.200000000000045,-0.007417
56.400000000000034,-0.003878
56.60000000000002,-0.0023349999999999
56.80000000000001,-0.0017880000000001
57.0,-0.0039330000000001
57.200000000000045,-0.005303
57.400000000000034,-0.0071540000000001
57.60000000000002,-0.008952
57.80000000000001,-0.0120500000000001
58.0,-0.0129700000000001
58.200000000000045,-0.0147410000000001
58.400000000000034,-0.0146030000000001
58.60000000000002,-0.0145589999999999
58.80000000000001,-0.0132339999999999
59.0,-0.0122570000000001
59.200000000000045,-0.0122410000000001
59.400000000000034,-0.013239
59.60000000000002,-0.0144870000000001
59.80000000000007,-0.0149019999999999
60.0,-0.0139150000000001
60.200000000000045,-0.0136470000000001
60.39999999999998,-0.0145939999999999
60.60000000000002,-0.0145319999999999
60.80000000000007,-0.014842
61.0,-0.015417
61.200000000000045,-0.013754
61.39999999999998,-0.009592
61.60000000000002,-0.0063870000000001
61.80000000000007,-0.0045939999999999
62.0,-0.0045239999999999
62.200000000000045,-0.006164
62.39999999999998,-0.0102280000000001
62.60000000000002,-0.0134860000000001
62.80000000000007,-0.015209
63.0,-0.01686
63.200000000000045,-0.016337
63.39999999999998,-0.0147700000000001
63.60000000000002,-0.012691
63.80000000000007,-0.011894
64.0,-0.0099770000000001
64.20000000000005,-0.009481
64.39999999999998,-0.0085110000000001
64.60000000000002,-0.0089529999999999
64.80000000000007,-0.0080850000000001
65.0,-0.0072890000000001
65.20000000000005,-0.006502
65.39999999999998,-0.0054940000000001
65.60000000000002,-0.0043600000000001
65.80000000000007,-0.0046399999999999
66.0,-0.005457
66.20000000000005,-0.007532
66.39999999999998,-0.011104
66.60000000000002,-0.0147460000000001
66.80000000000007,-0.0161010000000001
67.0,-0.014769
67.20000000000005,-0.0116210000000001
67.39999999999998,-0.0086559999999999
67.60000000000002,-0.0067920000000001
67.80000000000007,-0.006202
68.0,-0.0070620000000001
68.20000000000005,-0.007581
68.39999999999998,-0.007829
68.60000000000002,-0.0069909999999999
68.80000000000007,-0.006447
69.0,-0.0067909999999999
69.20000000000005,-0.008618
69.39999999999998,-0.010097
69.60000000000002,-0.0100489999999999
69.80000000000007,-0.0087760000000001
70.0,-0.0079090000000001
70.20000000000005,-0.0079059999999999
70.39999999999998,-0.007805
70.60000000000002,-0.008545
70.80000000000007,-0.008407
71.0,-0.0067320000000001
71.20000000000005,-0.004823
71.39999999999998,-0.0045509999999999
71.60000000000002,-0.005022
71.80000000000007,-0.008448
72.0,-0.010645
72.20000000000005,-0.010753
72.39999999999998,-0.0073260000000001
72.60000000000002,-0.0074340000000001
72.80000000000007,-0.007894
73.0,-0.009292
73.20000000000005,-0.00953
73.39999999999998,-0.010728
73.60000000000002,-0.0091529999999999
73.80000000000007,-0.0074640000000001
74.0,-0.0081040000000001
74.20000000000005,-0.00916
74.39999999999998,-0.0113199999999999
74.60000000000002,-0.010747
74.80000000000007,-0.01069
75.0,-0.010798
75.20000000000005,-0.012601
75.39999999999998,-0.011897
75.60000000000002,-0.0120610000000001
75.80000000000007,-0.0113910000000001
76.0,-0.0096480000000001
76.20000000000005,-0.008574
76.39999999999998,-0.010078
76.60000000000002,-0.0128430000000001
76.80000000000007,-0.0116880000000001
77.0,-0.009033
77.20000000000005,-0.005921
77.39999999999998,-0.0028970000000001
77.60000000000002,-0.0013370000000001
77.80000000000007,-0.0011100000000001
78.0,-0.00089
78.20000000000005,-0.000679
78.39999999999998,-0.0012590000000001
78.60000000000002,-0.0018230000000001
78.80000000000007,-0.002769
79.0,-0.006345
79.20000000000005,-0.0099059999999999
79.39999999999998,-0.0130540000000001
79.60000000000002,-0.0142040000000001
79.80000000000007,-0.0156100000000001
80.0,-0.0138550000000001
80.20000000000005,-0.0118169999999999
80.39999999999998,-0.010302
80.60000000000002,-0.009255
80.80000000000007,-0.0104589999999999
81.0,-0.0128019999999999
81.20000000000005,-0.0132510000000001
81.39999999999998,-0.0122250000000001
81.60000000000002,-0.012083
81.80000000000007,-0.0122600000000001
82.0,-0.010885
82.20000000000005,-0.0119029999999999
82.39999999999998,-0.0140900000000001
82.60000000000002,-0.0157020000000001
82.80000000000007,-0.0141980000000001
83.0,-0.0149940000000001
83.20000000000005,-0.0154910000000001
83.39999999999998,-0.014183
83.60000000000002,-0.0131540000000001
83.80000000000007,-0.0128080000000001
84.0,-0.0121170000000001
84.20000000000005,-0.0107369999999999
84.39999999999998,-0.01143
84.60000000000002,-0.0121580000000001
84.80000000000007,-0.012142
85.0,-0.0120409999999999
85.20000000000005,-0.0143729999999999
85.39999999999998,-0.016396
85.60000000000002,-0.016159
85.80000000000007,-0.016297
86.0,-0.0158329999999999
86.20000000000005,-0.01347
86.39999999999998,-0.0108030000000001
86.60000000000002,-0.009584
86.80000000000007,-0.0098230000000001
87.0,-0.009257
87.20000000000005,-0.0093739999999999
87.39999999999998,-0.010094
87.60000000000002,-0.0108570000000001
87.80000000000007,-0.0096800000000001
88.0,-0.0107920000000001
88.20000000000005,-0.011883
88.39999999999998,-0.0128190000000001
88.60000000000002,-0.013044
88.80000000000007,-0.0152540000000001
89.0,-0.0153849999999999
89.20000000000005,-0.013813
89.39999999999998,-0.011592
89.60000000000002,-0.011209
89.80000000000007,-0.0110110000000001
90.0,-0.012269
90.20000000000005,-0.013338
90.39999999999998,-0.013694
90.60000000000002,-0.012688
90.80000000000008,-0.0109210000000001
91.0,-0.0099250000000001
91.20000000000005,-0.0087240000000001
91.39999999999998,-0.007303
91.60000000000002,-0.005454
91.80000000000008,-0.0054230000000001
92.0,-0.0058219999999999
92.20000000000005,-0.0067270000000001
92.39999999999998,-0.0077090000000001
92.60000000000002,-0.010688
92.80000000000008,-0.011001
93.0,-0.010291
93.20000000000005,-0.01025
93.39999999999998,-0.011916
93.60000000000002,-0.011751
93.80000000000008,-0.012772
94.0,-0.012634
94.20000000000005,-0.012164
94.39999999999998,-0.010701
94.60000000000002,-0.0096279999999999
94.80000000000008,-0.0079440000000001
95.0,-0.007894
95.20000000000005,-0.0077930000000001
95.39999999999998,-0.009395
95.60000000000002,-0.0122889999999999
95.80000000000008,-0.015865
96.0,-0.016933
96.20000000000005,-0.017929
96.39999999999998,-0.0153960000000001
96.60000000000002,-0.011217
96.80000000000008,-0.007152
97.0,-0.0057660000000001
97.20000000000005,-0.0042710000000001
97.39999999999998,-0.0054929999999999
97.60000000000002,-0.0070910000000001
97.80000000000008,-0.0088570000000001
98.0,-0.0100759999999999
98.20000000000005,-0.0111879999999999
98.39999999999998,-0.012801
98.60000000000002,-0.015111
98.80000000000008,-0.0155
99.0,-0.0148559999999999
99.20000000000005,-0.0161
99.39999999999998,-0.016701
99.60000000000002,-0.0151890000000001
99.80000000000008,-0.014326
100.0,-0.0148430000000001
100.20000000000005,-0.0147909999999999
100.39999999999998,-0.01268
100.60000000000002,-0.013201
100.80000000000008,-0.014259
101.0,-0.0142809999999999
101.20000000000005,-0.013627
101.39999999999998,-0.0134260000000001
101.60000000000002,-0.012672
101.80000000000008,-0.0121299999999999
102.0,-0.0117789999999999
102.20000000000005,-0.0107970000000001
102.39999999999998,-0.0116930000000001
102.60000000000002,-0.012043
102.80000000000008,-0.011662
103.0,-0.010604
103.20000000000005,-0.0098409999999999
103.39999999999998,-0.007009
103.60000000000002,-0.005457
103.80000000000008,-0.005244
104.0,-0.0058850000000001
104.20000000000005,-0.0064000000000001
104.39999999999998,-0.0067490000000001
104.60000000000002,-0.006177
104.80000000000008,-0.005471
105.0,-0.0057340000000001
105.20000000000005,-0.007649
105.39999999999998,-0.01025
105.60000000000002,-0.0129080000000001
105.80000000000008,-0.0151259999999999
106.0,-0.013281
106.20000000000005,-0.011228
106.39999999999998,-0.0094070000000001
106.60000000000002,-0.0087000000000001
106.80000000000008,-0.008464
107.0,-0.0113530000000001
107.20000000000005,-0.012725
107.39999999999998,-0.015768
107.60000000000002,-0.014664
107.80000000000008,-0.0139170000000001
108.0,-0.0127080000000001
108.20000000000005,-0.0126700000000001
108.39999999999998,-0.011201
108.60000000000002,-0.0115210000000001
108.80000000000008,-0.010763
109.0,-0.011462
109.20000000000005,-0.0118280000000001
109.39999999999998,-0.013082
109.60000000000002,-0.0134770000000001
109.80000000000008,-0.0151560000000001
110.0,-0.014504
110.20000000000005,-0.0126669999999999
110.39999999999998,-0.008869
110.60000000000002,-0.0072020000000001
110.80000000000008,-0.005184
111.0,-0.0060759999999999
111.20000000000005,-0.008361
111.39999999999998,-0.0107890000000001
111.60000000000002,-0.012545
111.80000000000008,-0.0154400000000001
112.0,-0.0158450000000001
112.20000000000005,-0.0165360000000001
112.39999999999998,-0.0171179999999999
112.60000000000002,-0.0169130000000001
112.80000000000008,-0.0133579999999999
113.0,-0.0124110000000001
113.20000000000005,-0.011506
113.39999999999998,-0.0113160000000001
113.60000000000002,-0.010985
113.80000000000008,-0.0117530000000001
114.0,-0.0122619999999999
114.20000000000005,-0.010712
114.39999999999998,-0.007471
114.60000000000002,-0.0042969999999999
114.80000000000008,-0.0031290000000001
115.0,-0.001462
115.20000000000005,-0.003338
115.39999999999998,-0.0078820000000001
115.60000000000002,-0.01282
115.80000000000008,-0.0152750000000001
116.0,-0.0166140000000001
116.20000000000005,-0.0152620000000001
116.39999999999998,-0.014304
116.60000000000002,-0.0156400000000001
116.80000000000008,-0.0168639999999999
117.0,-0.0177519999999999
117.20000000000005,-0.0178550000000001
117.39999999999998,-0.0176560000000001
117.60000000000002,-0.015365
117.80000000000008,-0.0153240000000001
118.0,-0.0149449999999999
118.20000000000005,-0.015735
118.39999999999998,-0.0146330000000001
118.60000000000002,-0.0133579999999999
118.80000000000008,-0.0101790000000001
119.0,-0.01027
119.20000000000005,-0.009827
119.39999999999998,-0.0105330000000001
119.60000000000002,-0.012232
119.80000000000008,-0.0152849999999999
120.0,-0.015954
120.20000000000005,-0.0161500000000001
120.39999999999998,-0.016928
120.60000000000002,-0.017435
120.80000000000008,-0.0166330000000001
121.0,-0.016699
121.20000000000005,-0.018288
121.39999999999998,-0.0189920000000001
121.60000000000002,-0.01838
121.80000000000008,-0.0158740000000001
122.0,-0.012027
122.20000000000005,-0.0085779999999999
122.39999999999998,-0.006836
122.60000000000002,-0.00766
122.80000000000008,-0.0114640000000001
123.0,-0.014423
123.20000000000005,-0.017497
123.39999999999998,-0.0188639999999999
123.60000000000002,-0.0173400000000001
123.80000000000008,-0.0159
124.0,-0.016485
124.20000000000005,-0.016737
124.39999999999998,-0.015862
124.60000000000002,-0.015956
124.80000000000008,-0.015463
125.0,-0.0143570000000001
125.20000000000005,-0.012626
125.39999999999998,-0.0113849999999999
125.60000000000002,-0.0106749999999999
125.80000000000008,-0.0101900000000001
126.0,-0.009157
126.20000000000005,-0.007929
126.39999999999998,-0.0066600000000001
126.60000000000002,-0.007084
126.80000000000008,-0.0068320000000001
127.0,-0.007136
127.20000000000005,-0.008472
127.39999999999998,-0.011821
127.60000000000002,-0.0122619999999999
127.80000000000008,-0.012359
128.0,-0.0118280000000001
128.20000000000005,-0.0089430000000001
128.39999999999998,-0.005363
128.60000000000002,-0.003389
128.80000000000007,-0.0040010000000001
129.0,-0.003675
129.20000000000005,-0.0034310000000001
129.39999999999998,-0.0029270000000001
129.60000000000002,-0.0029369999999999
129.80000000000007,-0.0019330000000001
130.0,-0.0036020000000001
130.20000000000005,-0.006895
130.39999999999998,-0.0103470000000001
130.60000000000002,-0.01184
130.80000000000007,-0.0122410000000001
131.0,-0.011292
131.20000000000005,-0.011227
131.39999999999998,-0.0104589999999999
131.60000000000002,-0.0095979999999999
131.80000000000007,-0.0092499999999999
132.0,-0.0100550000000001
132.20000000000005,-0.0103520000000001
132.39999999999998,-0.010807
132.60000000000002,-0.013352
132.80000000000007,-0.013849
133.0,-0.014372
133.20000000000005,-0.013398
133.39999999999998,-0.0133720000000001
133.60000000000002,-0.011873
133.80000000000007,-0.0120489999999999
134.0,-0.0110810000000001
134.20000000000005,-0.011514
134.39999999999998,-0.011082
134.60000000000002,-0.012834
134.80000000000007,-0.014607
135.0,-0.0175040000000001
135.20000000000005,-0.017719
135.39999999999998,-0.0193210000000001
135.60000000000002,-0.019813
135.80000000000007,-0.0200010000000001
136.0,-0.0182680000000001
136.20000000000005,-0.019274
136.39999999999998,-0.017929
136.60000000000002,-0.013889
136.80000000000007,-0.0109019999999999
137.0,-0.0096930000000001
137.20000000000005,-0.01
137.39999999999998,-0.0106300000000001
137.60000000000002,-0.013325
137.80000000000007,-0.015632
138.0,-0.0172309999999999
138.20000000000005,-0.017508
138.39999999999998,-0.0184330000000001
138.60000000000002,-0.0188330000000001
138.80000000000007,-0.0173990000000001
139.0,-0.0160980000000001
139.20000000000005,-0.015079
139.39999999999998,-0.013489
139.60000000000002,-0.0126730000000001
139.80000000000007,-0.0126399999999999
140.0,-0.011757
140.20000000000005,-0.010966
140.39999999999998,-0.012548
140.60000000000002,-0.0119930000000001
140.80000000000007,-0.0112130000000001
141.0,-0.0103470000000001
141.20000000000005,-0.011457
141.39999999999998,-0.0107050000000001
141.60000000000002,-0.0116500000000001
141.80000000000007,-0.0128410000000001
142.0,-0.0141379999999999
142.20000000000005,-0.0120360000000001
142.39999999999998,-0.0105360000000001
142.60000000000002,-0.0096500000000001
142.80000000000007,-0.0099880000000001
143.0,-0.012378
143.20000000000005,-0.0145220000000001
143.39999999999998,-0.015951
143.60000000000002,-0.0158090000000001
143.80000000000007,-0.0158280000000001
144.0,-0.0132990000000001
144.20000000000005,-0.0121
144.39999999999998,-0.0119930000000001
144.60000000000002,-0.0134510000000001
144.80000000000007,-0.013835
145.0,-0.015533
145.20000000000005,-0.0176439999999999
145.39999999999998,-0.0178820000000001
145.60000000000002,-0.017554
145.80000000000007,-0.018154
146.0,-0.018491
146.20000000000005,-0.016186
146.39999999999998,-0.013328
146.60000000000002,-0.011152
146.80000000000007,-0.011041
147.0,-0.0105140000000001
147.20000000000005,-0.010995
147.39999999999998,-0.013265
147.60000000000002,-0.013856
147.80000000000007,-0.0119010000000001
148.0,-0.010853
148.20000000000005,-0.01275
148.39999999999998,-0.013352
148.60000000000002,-0.0129380000000001
148.80000000000007,-0.013192
149.0,-0.0146270000000001
149.20000000000005,-0.014631
149.39999999999998,-0.015033
149.60000000000002,-0.0176640000000001
149.80000000000007,-0.0179420000000001
150.0,-0.0184190000000001
150.20000000000005,-0.0153849999999999
150.39999999999998,-0.013676
150.60000000000002,-0.0114590000000001
150.80000000000007,-0.01265
151.0,-0.0142950000000001
151.20000000000005,-0.0189380000000001
151.39999999999998,-0.022777
151.60000000000002,-0.0275830000000001
151.80000000000007,-0.029406
152.0,-0.0280500000000001
152.20000000000005,-0.026113
152.39999999999998,-0.0258560000000001
152.60000000000002,-0.021997
152.80000000000007,-0.0185030000000001
153.0,-0.016186
153.20000000000005,-0.016442
153.39999999999998,-0.0128989999999999
153.60000000000002,-0.0121029999999999
153.80000000000007,-0.0124589999999999
154.0,-0.013417
154.20000000000005,-0.0116370000000001
154.39999999999998,-0.011881
154.60000000000002,-0.012653
154.80000000000007,-0.0117390000000001
155.0,-0.0091689999999999
155.20000000000005,-0.0080420000000001
155.39999999999998,-0.0077960000000001
155.60000000000002,-0.007406
155.80000000000007,-0.0074850000000001
156.0,-0.0092959999999999
156.20000000000005,-0.009767
156.39999999999998,-0.0102999999999999
156.60000000000002,-0.0109799999999999
156.80000000000007,-0.0128719999999999
157.0,-0.014928
157.20000000000005,-0.018353
157.39999999999998,-0.021015
157.60000000000002,-0.022297
157.80000000000007,-0.0226969999999999
158.0,-0.0208570000000001
158.20000000000005,-0.0185900000000001
158.39999999999998,-0.0156560000000001
158.60000000000002,-0.0138770000000001
158.80000000000007,-0.012431
159.0,-0.0119800000000001
159.20000000000005,-0.010715
159.39999999999998,-0.0112
159.60000000000002,-0.0126319999999999
159.80000000000007,-0.015444
160.0,-0.0168110000000001
160.20000000000005,-0.0176310000000001
160.39999999999998,-0.01652
160.60000000000002,-0.015759
160.80000000000007,-0.0142459999999999
161.0,-0.0130830000000001
161.20000000000005,-0.012064
161.39999999999998,-0.0123840000000001
161.60000000000002,-0.011943
161.80000000000007,-0.011373
162.0,-0.0116750000000001
162.20000000000005,-0.013125
162.39999999999998,-0.0162999999999999
162.60000000000002,-0.0164110000000001
162.80000000000007,-0.017425
163.0,-0.0191620000000001
163.20000000000005,-0.021136
163.39999999999998,-0.0208570000000001
163.60000000000002,-0.0227160000000001
163.80000000000007,-0.0237910000000001
164.0,-0.024898
164.20000000000005,-0.0245730000000001
164.39999999999998,-0.025166
164.60000000000002,-0.025417
164.80000000000007,-0.025625
165.0,-0.0233780000000001
165.20000000000005,-0.022072
165.39999999999998,-0.018612
165.60000000000002,-0.016329
165.80000000000007,-0.0136230000000001
166.0,-0.0132350000000001
166.20000000000005,-0.0118500000000001
166.39999999999998,-0.0126570000000001
166.60000000000002,-0.0125399999999999
166.80000000000007,-0.011201
167.0,-0.0100489999999999
167.20000000000005,-0.010278
167.39999999999998,-0.010928
167.60000000000002,-0.0121490000000001
167.80000000000007,-0.0143189999999999
168.0,-0.0155290000000001
168.20000000000005,-0.0151560000000001
168.39999999999998,-0.013333
168.60000000000002,-0.0117880000000001
168.80000000000007,-0.0124589999999999
169.0,-0.013041
169.20000000000005,-0.013171
169.39999999999998,-0.014137
169.60000000000002,-0.013052
169.80000000000007,-0.010617
170.0,-0.009282
170.20000000000005,-0.0105540000000001
170.39999999999998,-0.0105859999999999
170.60000000000002,-0.012942
170.80000000000007,-0.014062
171.0,-0.014364
171.20000000000005,-0.01353
171.39999999999998,-0.013247
171.60000000000002,-0.0130480000000001
171.80000000000007,-0.0160060000000001
172.0,-0.0185509999999999
172.20000000000005,-0.020906
172.39999999999998,-0.0234910000000001
172.60000000000002,-0.0246170000000001
172.80000000000007,-0.022466
173.0,-0.0201410000000001
173.20000000000005,-0.0195260000000001
173.39999999999998,-0.0183520000000001
173.60000000000002,-0.0188840000000001
173.80000000000007,-0.0184920000000001
174.0,-0.0182459999999999
174.20000000000005,-0.015417
174.39999999999998,-0.015619
174.60000000000002,-0.016156
174.80000000000007,-0.0175960000000001
175.0,-0.0190400000000001
175.20000000000005,-0.02214
175.39999999999998,-0.02204
175.60000000000002,-0.01939
175.80000000000007,-0.0151240000000001
176.0,-0.011919
176.20000000000005,-0.0096709999999999
176.39999999999998,-0.009104
176.60000000000002,-0.0099489999999999
176.80000000000007,-0.0130719999999999
177.0,-0.0172510000000001
177.20000000000005,-0.019179
177.39999999999998,-0.0205030000000001
177.60000000000002,-0.020855
177.80000000000007,-0.022407
178.0,-0.0203760000000001
178.20000000000005,-0.0182999999999999
178.39999999999998,-0.015082
178.60000000000002,-0.012232
178.80000000000007,-0.00981
179.0,-0.009139
179.20000000000005,-0.010107
179.39999999999998,-0.0112260000000001
179.60000000000002,-0.013511
179.80000000000007,-0.014005
180.0,-0.0156040000000001
180.20000000000005,-0.015149
180.4,-0.0140580000000001
180.6,-0.0123459999999999
180.80000000000007,-0.0129490000000001
181.0,-0.01306
181.20000000000005,-0.0133970000000001
181.4,-0.013992
181.6,-0.014526
181.80000000000007,-0.0138010000000001
182.0,-0.0123539999999999
182.20000000000005,-0.012126
182.4,-0.014637
182.6,-0.0164900000000001
182.80000000000007,-0.017376
183.0,-0.0175450000000001
183.20000000000005,-0.0197310000000001
183.4,-0.019579
183.6,-0.0204760000000001
183.80000000000007,-0.0199759999999999
184.0,-0.021381
184.20000000000005,-0.020002
184.4,-0.0199390000000001
184.6,-0.0186680000000001
184.80000000000007,-0.0206460000000001
185.0,-0.020161
185.20000000000005,-0.0188080000000001
185.4,-0.0168989999999999
185.6,-0.0169300000000001
185.80000000000007,-0.0166170000000001
186.0,-0.018197
186.20000000000005,-0.019929
186.4,-0.020091
186.6,-0.0190259999999999
186.80000000000007,-0.017012
187.0,-0.016164
187.20000000000005,-0.0149099999999999
187.4,-0.014683
187.6,-0.0162889999999999
187.80000000000007,-0.017122
188.0,-0.017087
188.20000000000005,-0.0154690000000001
188.4,-0.0150959999999999
188.6,-0.012699
188.80000000000007,-0.01061
189.0,-0.008963
189.20000000000005,-0.0101770000000001
189.4,-0.0123740000000001
189.6,-0.01485
189.80000000000007,-0.0166859999999999
190.0,-0.018939
190.20000000000005,-0.021444
190.4,-0.0213
190.6,-0.020634
190.80000000000007,-0.020021
191.0,-0.016154
191.20000000000005,-0.013457
191.4,-0.0119470000000001
191.6,-0.0127430000000001
191.80000000000007,-0.01465
192.0,-0.0187570000000001
192.20000000000005,-0.0207939999999999
192.4,-0.0217
192.6,-0.0200740000000001
192.80000000000007,-0.017659
193.0,-0.0142999999999999
193.20000000000005,-0.013471
193.4,-0.013239
193.6,-0.0148639999999999
193.80000000000007,-0.015192
194.0,-0.015794
194.20000000000005,-0.014914
194.4,-0.0138260000000001
194.6,-0.0125440000000001
194.80000000000007,-0.014024
195.0,-0.016091
195.20000000000005,-0.0165159999999999
195.4,-0.0150050000000001
195.6,-0.012145
195.80000000000007,-0.0099280000000001
196.0,-0.006407
196.20000000000005,-0.0044699999999999
196.4,-0.0076819999999999
196.6,-0.0116279999999999
196.80000000000007,-0.0147460000000001
197.0,-0.0185920000000001
197.20000000000005,-0.022021
197.4,-0.019543
197.6,-0.017049
197.80000000000007,-0.0139390000000001
198.0,-0.010561
198.20000000000005,-0.0085920000000001
198.4,-0.01105
198.6,-0.01292
198.80000000000007,-0.014704
199.0,-0.0157850000000001
199.20000000000005,-0.0173340000000001
199.4,-0.0170339999999999
199.6,-0.016539
199.80000000000007,-0.0151940000000001
200.0,-0.0148030000000001
200.20000000000005,-0.0136290000000001
200.4,-0.0140330000000001
200.6,-0.0143729999999999
200.80000000000007,-0.0161410000000001
201.0,-0.017411
201.20000000000005,-0.017789
201.4,-0.0169430000000001
201.6,-0.0167049999999999
201.80000000000007,-0.0170639999999999
202.0,-0.017722
202.20000000000005,-0.017838
202.4,-0.0166520000000001
202.6,-0.016097
202.80000000000007,-0.0143090000000001
203.0,-0.014188
203.20000000000005,-0.013991
203.4,-0.0143539999999999
203.6,-0.015919
203.80000000000007,-0.0167520000000001
204.0,-0.017956
204.20000000000005,-0.019036
204.4,-0.0224840000000001
204.6,-0.0232510000000001
204.80000000000007,-0.023922
205.0,-0.0230190000000001
205.20000000000005,-0.023333
205.4,-0.0203900000000001
205.6,-0.018299
205.80000000000007,-0.01723
206.0,-0.015822
206.20000000000005,-0.0125220000000001
206.4,-0.0120740000000001
206.6,-0.013193
206.80000000000007,-0.0133610000000001
207.0,-0.0150560000000001
207.20000000000005,-0.0170650000000001
207.4,-0.0180090000000001
207.6,-0.01757
207.80000000000007,-0.0176070000000001
208.0,-0.017042
208.20000000000005,-0.0171320000000001
208.4,-0.0165110000000001
208.6,-0.017978
208.80000000000007,-0.017373
209.0,-0.0170110000000001
209.20000000000005,-0.0176629999999999
209.4,-0.0197770000000001
209.6,-0.018024
209.80000000000007,-0.0191430000000001
210.0,-0.020202
210.20000000000005,-0.0196370000000001
210.4,-0.017503
210.6,-0.0165319999999999
210.80000000000007,-0.0161120000000001
211.0,-0.015562
211.20000000000005,-0.016
211.4,-0.016801
211.6,-0.0177180000000001
211.80000000000007,-0.01686
212.0,-0.0168110000000001
212.20000000000005,-0.0163380000000001
212.4,-0.0163140000000001
212.6,-0.014566
212.80000000000007,-0.0155310000000001
213.0,-0.0169700000000001
213.20000000000005,-0.0187760000000001
213.4,-0.0186330000000001
213.6,-0.018135
213.80000000000007,-0.016415
214.0,-0.0145250000000001
214.20000000000005,-0.014237
214.4,-0.0153860000000001
214.6,-0.0175089999999999
214.80000000000007,-0.01993
215.0,-0.021373
215.20000000000005,-0.0197020000000001
215.4,-0.018356
215.6,-0.0187890000000001
215.80000000000007,-0.0162539999999999
216.0,-0.012467
216.20000000000005,-0.0099599999999999
216.4,-0.0092860000000001
216.6,-0.0085000000000001
216.80000000000007,-0.012153
217.0,-0.016278
217.20000000000005,-0.0204840000000001
217.4,-0.0221489999999999
217.6,-0.0226140000000001
217.80000000000007,-0.021241
218.0,-0.0193769999999999
218.20000000000005,-0.0165840000000001
218.4,-0.0132309999999999
218.6,-0.011783
218.80000000000007,-0.0104220000000001
219.0,-0.01078
219.20000000000005,-0.010413
219.4,-0.011255
219.6,-0.0142410000000001
219.80000000000007,-0.0171510000000001
220.0,-0.0198610000000001
220.20000000000005,-0.021695
220.4,-0.023841
220.6,-0.0219770000000001
220.80000000000007,-0.01882
221.0,-0.014383
221.20000000000005,-0.0128479999999999
221.4,-0.011136
221.6,-0.010304
221.80000000000007,-0.0101930000000001
222.0,-0.0121900000000001
222.20000000000005,-0.013381
222.4,-0.01417
222.6,-0.015646
222.80000000000007,-0.0179150000000001
223.0,-0.0187140000000001
223.20000000000005,-0.0180520000000001
223.4,-0.018839
223.6,-0.0181299999999999
223.80000000000007,-0.0178100000000001
224.0,-0.0168989999999999
224.20000000000005,-0.0181189999999999
224.4,-0.0178640000000001
224.6,-0.019411
224.80000000000007,-0.019482
225.0,-0.0201999999999999
225.20000000000005,-0.0194769999999999
225.4,-0.0195050000000001
225.6,-0.0176120000000001
225.80000000000007,-0.015665
226.0,-0.011673
226.20000000000005,-0.0102170000000001
226.4,-0.009646
226.6,-0.008739
226.80000000000007,-0.008529
227.0,-0.010906
227.20000000000005,-0.0154800000000001
227.4,-0.0164509999999999
227.6,-0.0191430000000001
227.80000000000007,-0.0209570000000001
228.0,-0.0228669999999999
228.20000000000005,-0.020413
228.4,-0.0208620000000001
228.6,-0.0206980000000001
228.80000000000007,-0.0196660000000001
229.0,-0.019033
229.20000000000005,-0.0203060000000001
229.4,-0.022097
229.6,-0.022324
229.80000000000007,-0.023665
230.0,-0.0227060000000001
230.20000000000005,-0.021106
230.4,-0.0193990000000001
230.6,-0.019678
230.80000000000007,-0.019581
231.0,-0.0204490000000001
231.20000000000005,-0.018766
231.4,-0.0161850000000001
231.6,-0.015214
231.80000000000007,-0.016715
232.0,-0.017894
232.20000000000005,-0.0215899999999999
232.4,-0.026156
232.6,-0.028429
232.80000000000007,-0.0268380000000001
233.0,-0.0257640000000001
233.20000000000005,-0.0251989999999999
233.4,-0.0233039999999999
233.6,-0.0215150000000001
233.80000000000007,-0.021543
234.0,-0.0205090000000001
234.20000000000005,-0.0207380000000001
234.4,-0.0217690000000001
234.6,-0.021489
234.80000000000007,-0.020758
235.0,-0.020675
235.20000000000005,-0.0190130000000001
235.4,-0.016696
235.6,-0.0171430000000001
235.80000000000007,-0.017462
236.0,-0.0195800000000001
236.20000000000005,-0.0213400000000001
236.4,-0.024745
236.6,-0.026736
236.80000000000007,-0.0274670000000001
237.0,-0.022763
237.20000000000005,-0.0166479999999999
237.4,-0.008472
237.6,-0.002472
237.80000000000007,0.0004119999999998
238.0,-0.002842
238.20000000000005,-0.007314
238.4,-0.0126600000000001
238.6,-0.0154830000000001
238.80000000000007,-0.0182360000000001
239.0,-0.0175640000000001
239.20000000000005,-0.0167840000000001
239.4,-0.015584
239.6,-0.0163250000000001
239.80000000000007,-0.0154910000000001
240.0,-0.017395
240.20000000000005,-0.02011
240.4,-0.022245
240.6,-0.021341
240.80000000000007,-0.02027
241.0,-0.017741
241.20000000000005,-0.014925
241.4,-0.014097
241.6,-0.014934
241.80000000000007,-0.0149289999999999
242.0,-0.0153340000000001
242.20000000000005,-0.017481
242.4,-0.0189160000000001
242.6,-0.018834
242.80000000000007,-0.019414
243.0,-0.0229540000000001
243.20000000000005,-0.0247600000000001
243.4,-0.0252640000000001
243.6,-0.026391
243.80000000000007,-0.02774
244.0,-0.02583
244.20000000000005,-0.0242850000000001
244.4,-0.0236819999999999
244.6,-0.023876
244.80000000000007,-0.024512
245.0,-0.025884
245.20000000000005,-0.0270000000000001
245.4,-0.026399
245.6,-0.0251810000000001
245.80000000000007,-0.023533
246.0,-0.0201690000000001
246.20000000000005,-0.016283
246.4,-0.016351
246.6,-0.0181580000000001
246.80000000000007,-0.0207270000000001
247.0,-0.0237629999999999
247.20000000000005,-0.024758
247.4,-0.0238280000000001
247.6,-0.0216150000000001
247.80000000000007,-0.020955
248.0,-0.0175739999999999
248.20000000000005,-0.016823
248.4,-0.015133
248.6,-0.0142919999999999
248.80000000000007,-0.0121200000000001
249.0,-0.014375
249.20000000000005,-0.016072
249.4,-0.0195040000000001
249.6,-0.0207300000000001
249.80000000000007,-0.022432
250.0,-0.0216670000000001
250.20000000000005,-0.022367
250.4,-0.0205920000000001
250.6,-0.0199949999999999
250.80000000000007,-0.01804
251.0,-0.018934
251.20000000000005,-0.0190609999999999
251.4,-0.0197770000000001
251.6,-0.0203649999999999
251.80000000000007,-0.0215290000000001
252.0,-0.019778
252.20000000000005,-0.018666
252.4,-0.018324
252.6,-0.0202790000000001
252.80000000000007,-0.0226080000000001
253.0,-0.0258910000000001
253.20000000000005,-0.0269320000000001
253.4,-0.0272830000000001
253.6,-0.0255050000000001
253.80000000000007,-0.0251910000000001
254.0,-0.025716
254.20000000000005,-0.0261569999999999
254.4,-0.025177
254.6,-0.024674
254.80000000000007,-0.024386
255.0,-0.023517
255.20000000000005,-0.0250860000000001
255.4,-0.026917
255.6,-0.028817
255.80000000000007,-0.0270719999999999
256.0,-0.0235119999999999
256.20000000000005,-0.01716
256.4,-0.013109
256.6,-0.0106790000000001
256.80000000000007,-0.0106080000000001
257.0,-0.012126
257.20000000000005,-0.0133739999999999
257.4,-0.014658
257.6,-0.01384
257.80000000000007,-0.0122459999999999
258.0,-0.012431
258.20000000000005,-0.0142919999999999
258.4,-0.0162189999999999
258.6,-0.016888
258.80000000000007,-0.01872
259.0,-0.017659
259.20000000000005,-0.0167319999999999
259.4,-0.0152149999999999
259.6,-0.015875
259.80000000000007,-0.0158260000000001
260.0,-0.016798
260.20000000000005,-0.0191590000000001
260.4,-0.019665
260.6,-0.0197819999999999
260.80000000000007,-0.020399
261.0,-0.022569
261.20000000000005,-0.023344
261.4,-0.0256199999999999
261.6,-0.0261280000000001
261.80000000000007,-0.026523
262.0,-0.023813
262.20000000000005,-0.020145
262.4,-0.0163820000000001
262.6,-0.0153100000000001
262.80000000000007,-0.014612
263.0,-0.0166810000000001
263.20000000000005,-0.020974
263.4,-0.025713
263.6,-0.027598
263.80000000000007,-0.02801
264.0,-0.0267730000000001
264.20000000000005,-0.023749
264.4,-0.0194560000000001
264.6,-0.017848
264.80000000000007,-0.0187570000000001
265.0,-0.0217930000000001
265.20000000000005,-0.025176
265.4,-0.029109
265.6,-0.0307000000000001
265.80000000000007,-0.0285630000000001
266.0,-0.0253350000000001
266.20000000000005,-0.022059
266.4,-0.0210380000000001
266.6,-0.021022
266.80000000000007,-0.022018
267.0,-0.023328
267.20000000000005,-0.0247779999999999
267.4,-0.0240550000000001
267.6,-0.0226319999999999
267.80000000000007,-0.0225520000000001
268.0,-0.0196400000000001
268.20000000000005,-0.0182470000000001
268.4,-0.018132
268.6,-0.0191650000000001
268.80000000000007,-0.01939
269.0,-0.0201729999999999
269.20000000000005,-0.02041
269.4,-0.0220690000000001
269.6,-0.023989
269.80000000000007,-0.0244459999999999
270.0,-0.0254
270.20000000000005,-0.0250570000000001
270.4,-0.023292
270.6,-0.0204520000000001
270.80000000000007,-0.01929
271.0,-0.0198530000000001
271.20000000000005,-0.0208650000000001
271.4,-0.0220329999999999
271.6,-0.0241060000000001
271.80000000000007,-0.0252990000000001
272.0,-0.0244699999999999
272.20000000000005,-0.021902
272.4,-0.018404
272.6,-0.013627
272.80000000000007,-0.009703
273.0,-0.00861
273.20000000000005,-0.0097359999999999
273.4,-0.011805
273.6,-0.0151890000000001
273.80000000000007,-0.0193780000000001
274.0,-0.0215119999999999
274.20000000000005,-0.022073
274.4,-0.023565
274.6,-0.0247000000000001
274.80000000000007,-0.022439
275.0,-0.020472
275.20000000000005,-0.0197500000000001
275.4,-0.0178409999999999
275.6,-0.01549
275.80000000000007,-0.0153739999999999
276.0,-0.015738
276.20000000000005,-0.017584
276.4,-0.0200059999999999
276.6,-0.0237549999999999
276.80000000000007,-0.0265140000000001
277.0,-0.0303140000000001
277.20000000000005,-0.0326460000000001
277.4,-0.0338549999999999
277.6,-0.0328920000000001
277.80000000000007,-0.0326239999999999
278.0,-0.031101
278.20000000000005,-0.029349
278.4,-0.0272480000000001
278.6,-0.0269590000000001
278.80000000000007,-0.026072
279.0,-0.026542
279.20000000000005,-0.025919
279.4,-0.025346
279.6,-0.024116
279.80000000000007,-0.0243660000000001
280.0,-0.0227190000000001
280.20000000000005,-0.0210830000000001
280.4,-0.0204349999999999
280.6,-0.0199720000000001
280.80000000000007,-0.019374
281.0,-0.018772
281.20000000000005,-0.0175860000000001
281.4,-0.016629
281.6,-0.017533
281.80000000000007,-0.0187319999999999
282.0,-0.0189920000000001
282.20000000000005,-0.0210510000000001
282.4,-0.022337
282.6,-0.022377
282.80000000000007,-0.0215100000000001
283.0,-0.0221029999999999
283.20000000000005,-0.0214199999999999
283.4,-0.0203630000000001
283.6,-0.020318
283.80000000000007,-0.0201660000000001
284.0,-0.0206159999999999
284.20000000000005,-0.022337
284.4,-0.0248399999999999
284.6,-0.024334
284.80000000000007,-0.0235389999999999
285.0,-0.021436
285.20000000000005,-0.020345
285.4,-0.0188860000000001
285.6,-0.019462
285.80000000000007,-0.020453
286.0,-0.021503
286.20000000000005,-0.0211810000000001
286.4,-0.0205570000000001
286.6,-0.0218900000000001
286.80000000000007,-0.0220340000000001
287.0,-0.0225060000000001
287.20000000000005,-0.02237
287.4,-0.022119
287.6,-0.01736
287.80000000000007,-0.0124950000000001
288.0,-0.0098610000000001
288.20000000000005,-0.0114480000000001
288.4,-0.012637
288.6,-0.0145699999999999
288.80000000000007,-0.0166030000000001
289.0,-0.0171149999999999
289.20000000000005,-0.0171400000000001
289.4,-0.019568
289.6,-0.0213160000000001
289.80000000000007,-0.0241219999999999
290.0,-0.0259169999999999
290.20000000000005,-0.0253069999999999
290.4,-0.023117
290.6,-0.022348
290.80000000000007,-0.0220900000000001
291.0,-0.021924
291.20000000000005,-0.0208730000000001
291.4,-0.0214340000000001
291.6,-0.0215130000000001
291.80000000000007,-0.0211449999999999
292.0,-0.0211339999999999
292.20000000000005,-0.0208430000000001
292.4,-0.0189890000000001
292.6,-0.019708
292.80000000000007,-0.0228030000000001
293.0,-0.025676
293.20000000000005,-0.0277340000000001
293.4,-0.0285220000000001
293.6,-0.0279500000000001
293.80000000000007,-0.026372
294.0,-0.024588
294.20000000000005,-0.0245650000000001
294.4,-0.026445
294.6,-0.027214
294.80000000000007,-0.0289030000000001
295.0,-0.0310030000000001
295.20000000000005,-0.0327570000000001
295.4,-0.03214
295.6,-0.0309460000000001
295.80000000000007,-0.027903
296.0,-0.0268510000000001
296.20000000000005,-0.0260170000000001
296.4,-0.026048
296.6,-0.0266270000000001
296.80000000000007,-0.0264950000000001
297.0,-0.02498
297.20000000000005,-0.0230289999999999
297.4,-0.0207730000000001
297.5999999999999,-0.0236610000000001
297.79999999999995,-0.0267550000000003
297.9999999999999,-0.0292060000000002
298.19999999999993,-0.0296160000000003
298.4,-0.0320720000000003
298.5999999999999,-0.0317590000000003
298.79999999999995,-0.0279900000000001
298.9999999999999,-0.0238530000000003
299.19999999999993,-0.0224580000000003
299.4,-0.0213770000000002
299.5999999999999,-0.0201320000000002
299.79999999999995,-0.0203180000000002
299.9999999999999,-0.0229360000000002
300.19999999999993,-0.0228800000000002
300.4,-0.0248210000000002
300.5999999999999,-0.0283030000000001
300.79999999999995,-0.0310160000000001
300.9999999999999,-0.0308060000000003
301.19999999999993,-0.0309460000000001
301.4,-0.0268270000000001
301.5999999999999,-0.0240310000000001
301.79999999999995,-0.0234710000000002
301.9999999999999,-0.0244260000000002
302.19999999999993,-0.0256350000000002
302.4,-0.0269900000000002
302.5999999999999,-0.0265690000000002
302.79999999999995,-0.0255850000000001
302.9999999999999,-0.0233150000000001
303.19999999999993,-0.0239320000000002
303.4,-0.0272190000000003
303.5999999999999,-0.0297610000000001
303.79999999999995,-0.0316210000000003
303.9999999999999,-0.0331080000000001
304.19999999999993,-0.0318770000000001
304.4,-0.0296130000000003
304.5999999999999,-0.0278390000000001
304.79999999999995,-0.0275410000000002
304.9999999999999,-0.0271740000000002
305.19999999999993,-0.0264460000000001
305.4,-0.0266470000000003
305.5999999999999,-0.0276470000000002
305.79999999999995,-0.0272180000000001
305.9999999999999,-0.0274670000000003
306.19999999999993,-0.0279130000000003
306.4,-0.0291050000000001
306.5999999999999,-0.0293140000000002
306.79999999999995,-0.0277990000000003
306.9999999999999,-0.0271080000000003
307.19999999999993,-0.0290150000000002
307.4,-0.0296420000000001
307.5999999999999,-0.0302310000000003
307.79999999999995,-0.0328180000000002
307.9999999999999,-0.0355120000000002
308.19999999999993,-0.0337670000000003
308.4,-0.0317770000000001
308.5999999999999,-0.0303940000000002
308.79999999999995,-0.0283210000000002
308.9999999999999,-0.0250730000000003
309.19999999999993,-0.0235710000000002
309.4,-0.0224820000000003
309.5999999999999,-0.0212120000000002
309.79999999999995,-0.0213830000000001
309.9999999999999,-0.0231210000000001
310.19999999999993,-0.0251770000000002
310.4,-0.0251900000000002
310.5999999999999,-0.0264150000000003
310.79999999999995,-0.0250720000000002
310.9999999999999,-0.0236440000000002
311.19999999999993,-0.0245340000000002
311.4,-0.0286620000000001
311.5999999999999,-0.0309860000000001
311.79999999999995,-0.0318500000000001
311.9999999999999,-0.0314550000000002
312.19999999999993,-0.0290370000000002
312.4,-0.0245300000000001
312.5999999999999,-0.0198480000000003
312.79999999999995,-0.0185330000000003
312.9999999999999,-0.0189630000000002
313.19999999999993,-0.0201490000000001
313.4,-0.0229980000000002
313.5999999999999,-0.0259640000000003
313.79999999999995,-0.0287230000000002
313.9999999999999,-0.0297070000000001
314.19999999999993,-0.0268560000000002
314.4,-0.0219460000000002
314.5999999999999,-0.0188990000000002
314.79999999999995,-0.0184400000000002
314.9999999999999,-0.0189460000000003
315.19999999999993,-0.0229920000000003
315.4,-0.0273670000000001
315.5999999999999,-0.0299750000000003
315.79999999999995,-0.0288290000000002
315.9999999999999,-0.0281400000000002
316.19999999999993,-0.0262500000000003
316.4,-0.0246960000000002
316.5999999999999,-0.0235560000000003
316.79999999999995,-0.0233590000000003
316.9999999999999,-0.0221640000000002
317.19999999999993,-0.0236370000000003
317.4,-0.0273130000000001
317.5999999999999,-0.0294910000000001
317.79999999999995,-0.0300930000000001
317.9999999999999,-0.0307830000000002
318.19999999999993,-0.0307590000000002
318.4,-0.0279230000000001
318.5999999999999,-0.0263970000000002
318.79999999999995,-0.0268860000000001
318.9999999999999,-0.0284420000000003
319.19999999999993,-0.0282760000000001
319.4,-0.0292380000000003
319.5999999999999,-0.0305160000000002
319.79999999999995,-0.0317960000000001
319.9999999999999,-0.0326320000000002
320.19999999999993,-0.0325380000000001
320.4,-0.0304850000000003
320.5999999999999,-0.0279490000000002
320.79999999999995,-0.0256650000000002
320.9999999999999,-0.0232250000000002
321.19999999999993,-0.0223970000000002
321.4,-0.0238050000000002
321.5999999999999,-0.0265710000000003
321.79999999999995,-0.0289390000000002
321.9999999999999,-0.0315910000000001
322.19999999999993,-0.0329080000000001
322.4,-0.0335900000000002
322.5999999999999,-0.0310530000000002
322.79999999999995,-0.0298970000000002
322.9999999999999,-0.0287960000000002
323.19999999999993,-0.0285950000000001
323.4,-0.0279250000000002
323.5999999999999,-0.0287880000000002
323.79999999999995,-0.0263130000000002
323.9999999999999,-0.0248060000000003
324.19999999999993,-0.0234700000000003
324.4,-0.0232510000000003
324.5999999999999,-0.0244920000000001
324.79999999999995,-0.0262030000000002
324.9999999999999,-0.0267150000000002
325.19999999999993,-0.0262790000000001
325.4,-0.0259510000000002
325.5999999999999,-0.0254260000000001
325.79999999999995,-0.0267110000000001
325.9999999999999,-0.0274850000000002
326.19999999999993,-0.0292700000000003
326.4,-0.0301270000000002
326.5999999999999,-0.0306590000000002
326.79999999999995,-0.0297670000000003
326.9999999999999,-0.0298060000000002
327.19999999999993,-0.0306210000000002
327.4,-0.0302300000000002
327.5999999999999,-0.0272760000000003
327.79999999999995,-0.0255280000000002
327.9999999999999,-0.0245030000000001
328.19999999999993,-0.0237670000000003
328.4,-0.0254590000000003
328.5999999999999,-0.0282480000000002
328.79999999999995,-0.0304450000000002
328.9999999999999,-0.0312040000000002
329.19999999999993,-0.0292920000000003
329.4,-0.0256100000000003
329.5999999999999,-0.0225170000000003
329.79999999999995,-0.0206650000000001
329.9999999999999,-0.0192190000000003
330.19999999999993,-0.0193190000000003
330.4,-0.0196290000000003
330.5999999999999,-0.0197510000000002
330.79999999999995,-0.0211490000000003
330.9999999999999,-0.0217970000000002
331.19999999999993,-0.0227570000000001
331.4,-0.0252820000000002
331.5999999999999,-0.0277550000000001
331.79999999999995,-0.0266200000000003
331.9999999999999,-0.0244680000000001
332.19999999999993,-0.0245060000000001
332.4,-0.0248700000000001
332.5999999999999,-0.0246510000000002
332.79999999999995,-0.0245020000000002
332.9999999999999,-0.0256850000000001
333.19999999999993,-0.0239360000000001
333.4,-0.0224790000000001
333.5999999999999,-0.0211100000000001
333.79999999999995,-0.0215750000000003
333.9999999999999,-0.0234980000000002
334.19999999999993,-0.0270580000000002
334.4,-0.0308450000000002
334.5999999999999,-0.0345430000000002
334.79999999999995,-0.0368020000000002
334.9999999999999,-0.0358630000000002
335.19999999999993,-0.0329270000000001
335.4,-0.0289050000000001
335.5999999999999,-0.0276340000000001
335.79999999999995,-0.0272200000000002
335.9999999999999,-0.0295710000000002
336.19999999999993,-0.0329100000000002
336.4,-0.0357780000000003
336.5999999999999,-0.0380060000000002
336.79999999999995,-0.0412310000000002
336.9999999999999,-0.0409950000000003
337.19999999999993,-0.0395290000000001
337.4,-0.0351490000000003
337.5999999999999,-0.0310020000000001
337.79999999999995,-0.0268600000000003
337.9999999999999,-0.0257100000000003
338.19999999999993,-0.0269100000000002
338.4,-0.0305050000000002
338.5999999999999,-0.0309810000000001
338.79999999999995,-0.0286800000000002
338.9999999999999,-0.0266210000000002
339.19999999999993,-0.0239700000000002
339.4,-0.0201930000000003
339.5999999999999,-0.0192720000000001
339.79999999999995,-0.0204660000000003
339.9999999999999,-0.0213120000000002
340.19999999999993,-0.0220990000000003
340.4,-0.0235060000000002
340.5999999999999,-0.0242320000000002
340.79999999999995,-0.0253500000000002
340.9999999999999,-0.0246650000000001
341.19999999999993,-0.0237680000000002
341.4,-0.0235900000000002
341.5999999999999,-0.0239160000000002
341.79999999999995,-0.0235270000000002
341.9999999999999,-0.0225180000000002
342.19999999999993,-0.0221870000000001
342.4,-0.0223620000000002
342.5999999999999,-0.0221970000000002
342.79999999999995,-0.0223360000000001
342.9999999999999,-0.0237810000000002
343.19999999999993,-0.0239340000000003
343.4,-0.0248500000000002
343.5999999999999,-0.0261870000000001
343.79999999999995,-0.0270110000000003
343.9999999999999,-0.0295420000000001
344.19999999999993,-0.0317350000000002
344.4,-0.0312780000000001
344.5999999999999,-0.0305350000000002
344.79999999999995,-0.0298420000000001
344.9999999999999,-0.0288890000000001
345.19999999999993,-0.0268940000000001
345.4,-0.0279660000000001
345.5999999999999,-0.0276160000000003
345.79999999999995,-0.0277150000000001
345.9999999999999,-0.0237720000000003
346.19999999999993,-0.0241390000000003
346.4,-0.0227330000000003
346.5999999999999,-0.0228820000000002
346.79999999999995,-0.0229410000000003
346.9999999999999,-0.0253350000000003
347.19999999999993,-0.0239810000000002
347.4,-0.0221380000000002
347.5999999999999,-0.0215400000000003
347.79999999999995,-0.0202040000000003
347.9999999999999,-0.0201060000000001
348.19999999999993,-0.0221160000000002
348.4,-0.0239300000000002
348.5999999999999,-0.0236310000000001
348.79999999999995,-0.0233110000000003
348.9999999999999,-0.0257790000000002
349.19999999999993,-0.0258510000000002
349.4,-0.0267650000000001
349.5999999999999,-0.0282660000000003
349.79999999999995,-0.0311310000000002
349.9999999999999,-0.0290570000000003
350.19999999999993,-0.0276070000000001
350.4,-0.0262510000000002
350.5999999999999,-0.0266420000000002
350.79999999999995,-0.0278170000000002
350.9999999999999,-0.0296480000000003
351.19999999999993,-0.0323950000000001
351.4,-0.0346470000000003
351.5999999999999,-0.0351690000000002
351.79999999999995,-0.0347670000000002
351.9999999999999,-0.0354400000000001
352.19999999999993,-0.0368210000000002
352.4,-0.0365070000000002
352.5999999999999,-0.0347640000000002
352.79999999999995,-0.0334810000000003
352.9999999999999,-0.0323240000000002
353.19999999999993,-0.0308140000000003
353.4,-0.0304150000000003
353.5999999999999,-0.0324470000000003
353.79999999999995,-0.0338160000000002
353.9999999999999,-0.0335020000000001
354.19999999999993,-0.0327650000000001
354.4,-0.0314750000000001
354.5999999999999,-0.0304550000000003
354.79999999999995,-0.0292360000000002
354.9999999999999,-0.0299390000000001
355.19999999999993,-0.0300950000000002
355.4,-0.0291020000000001
355.5999999999999,-0.0275740000000002
355.79999999999995,-0.0258960000000001
355.9999999999999,-0.0229090000000002
356.19999999999993,-0.0210240000000001
356.4,-0.0233530000000001
356.5999999999999,-0.0247940000000002
356.79999999999995,-0.0259600000000002
356.9999999999999,-0.0266090000000003
357.19999999999993,-0.0276660000000001
357.4,-0.0282280000000001
357.5999999999999,-0.0276040000000001
357.79999999999995,-0.0286510000000002
357.9999999999999,-0.0301850000000003
358.19999999999993,-0.0300980000000001
358.4,-0.0280580000000001
358.5999999999999,-0.0282840000000001
358.79999999999995,-0.0271790000000002
358.9999999999999,-0.0276880000000001
359.19999999999993,-0.0291760000000003
359.4,-0.0310620000000001
359.5999999999999,-0.0310300000000003
359.79999999999995,-0.0307280000000003
359.9999999999999,-0.0288990000000002
360.19999999999993,-0.0276300000000002
360.4,-0.0264540000000002
360.5999999999999,-0.0266270000000001
360.8,-0.0274850000000002
360.9999999999999,-0.0301670000000002
361.19999999999993,-0.0326570000000001
361.4,-0.0340420000000003
361.5999999999999,-0.0338530000000001
361.8,-0.0328110000000001
361.9999999999999,-0.0316720000000001
362.19999999999993,-0.0287890000000001
362.4,-0.0270140000000003
362.5999999999999,-0.0266880000000002
362.8,-0.0292680000000002
362.9999999999999,-0.0327790000000003
363.19999999999993,-0.0359690000000001
363.4,-0.0390190000000001
363.5999999999999,-0.0404240000000002
363.8,-0.0391460000000003
363.9999999999999,-0.0359190000000002
364.19999999999993,-0.0331950000000003
364.4,-0.0302890000000002
364.5999999999999,-0.0295850000000001
364.8,-0.0290090000000002
364.9999999999999,-0.0286890000000001
365.19999999999993,-0.0292850000000002
365.4,-0.0290150000000002
365.5999999999999,-0.0275930000000002
365.8,-0.0258780000000002
365.9999999999999,-0.0259830000000003
366.19999999999993,-0.0266900000000003
366.4,-0.0275330000000002
366.5999999999999,-0.0287580000000002
366.8,-0.0308440000000003
366.9999999999999,-0.0300940000000002
367.19999999999993,-0.0287790000000003
367.4,-0.0292450000000001
367.5999999999999,-0.0301290000000002
367.8,-0.0312830000000001
367.9999999999999,-0.0319440000000001
368.19999999999993,-0.0330900000000002
368.4,-0.0322790000000001
368.5999999999999,-0.0323600000000001
368.8,-0.0308240000000001
368.9999999999999,-0.0300760000000002
369.19999999999993,-0.0275890000000003
369.4,-0.0269270000000001
369.5999999999999,-0.0254660000000002
369.8,-0.0247110000000001
369.9999999999999,-0.0260940000000002
370.19999999999993,-0.0303030000000001
370.4,-0.0322990000000003
370.5999999999999,-0.0339460000000002
370.8,-0.0354740000000002
370.9999999999999,-0.0353270000000003
371.19999999999993,-0.0327940000000002
371.4,-0.0325650000000001
371.5999999999999,-0.0327270000000001
371.8,-0.0332830000000001
371.9999999999999,-0.0332030000000003
372.19999999999993,-0.0334720000000001
372.4,-0.0337420000000001
372.5999999999999,-0.0337600000000002
372.8,-0.0346660000000003
372.9999999999999,-0.0360920000000002
373.19999999999993,-0.0373840000000003
373.4,-0.0378060000000002
373.5999999999999,-0.0361590000000002
373.8,-0.0330860000000001
373.9999999999999,-0.0298030000000002
374.19999999999993,-0.0263410000000001
374.4,-0.0234860000000003
374.5999999999999,-0.0237300000000002
374.8,-0.0266340000000002
374.9999999999999,-0.0287470000000003
375.19999999999993,-0.0298140000000002
375.4,-0.0298040000000001
375.5999999999999,-0.0290360000000002
375.8,-0.0261150000000003
375.9999999999999,-0.0255340000000001
376.19999999999993,-0.0262540000000002
376.4,-0.0262380000000002
376.5999999999999,-0.0261090000000001
376.8,-0.0261350000000002
376.9999999999999,-0.0257190000000002
377.19999999999993,-0.0261260000000003
377.4,-0.0283000000000002
377.5999999999999,-0.0297360000000002
377.8,-0.0309060000000003
377.9999999999999,-0.0317070000000001
378.19999999999993,-0.0318900000000001
378.4,-0.0320210000000003
378.5999999999999,-0.0330010000000002
378.8,-0.0331050000000001
378.9999999999999,-0.0310060000000003
379.19999999999993,-0.0295930000000002
379.4,-0.0292670000000001
379.5999999999999,-0.0285100000000002
379.8,-0.0265270000000001
379.9999999999999,-0.0267670000000002
380.19999999999993,-0.0277350000000002
380.4,-0.0282790000000001
380.5999999999999,-0.0299610000000003
380.8,-0.0341890000000002
380.9999999999999,-0.0360850000000001
381.19999999999993,-0.0366250000000003
381.4,-0.0372750000000001
381.5999999999999,-0.0368390000000002
381.8,-0.0351950000000003
381.9999999999999,-0.0370290000000002
382.19999999999993,-0.0369850000000002
382.4,-0.0358510000000003
382.5999999999999,-0.0338330000000002
382.8,-0.0334410000000002
382.9999999999999,-0.0312790000000002
383.19999999999993,-0.0302930000000003
383.4,-0.0292040000000002
383.5999999999999,-0.0286790000000003
383.8,-0.0273460000000003
383.9999999999999,-0.0270770000000002
384.19999999999993,-0.0287550000000003
384.4,-0.0307400000000002
384.5999999999999,-0.0309990000000002
384.8,-0.0296060000000002
384.9999999999999,-0.0280210000000002
385.19999999999993,-0.0288630000000003
385.4,-0.0294820000000002
385.5999999999999,-0.0339540000000002
385.8,-0.0375020000000001
385.9999999999999,-0.0397620000000003
386.19999999999993,-0.0382100000000003
386.4,-0.0376540000000003
386.5999999999999,-0.0358010000000001
386.8,-0.0362040000000003
386.9999999999999,-0.0372260000000002
387.19999999999993,-0.0377950000000002
387.4,-0.0380610000000003
387.5999999999999,-0.0356090000000002
387.8,-0.0329240000000001
387.9999999999999,-0.0307320000000002
388.19999999999993,-0.0292990000000001
388.4,-0.0269870000000003
388.5999999999999,-0.0265380000000001
388.8,-0.0270980000000002
388.9999999999999,-0.0273390000000002
389.19999999999993,-0.0283170000000001
389.4,-0.0309950000000003
389.5999999999999,-0.0327990000000002
389.8,-0.0331100000000001
389.9999999999999,-0.0331440000000002
390.19999999999993,-0.0333070000000002
390.4,-0.0334770000000002
390.5999999999999,-0.0345570000000001
390.8,-0.0353210000000001
390.9999999999999,-0.0351380000000003
391.19999999999993,-0.0353180000000001
391.4,-0.0348710000000003
391.5999999999999,-0.0345020000000002
391.8,-0.0343630000000001
391.9999999999999,-0.0359020000000003
392.19999999999993,-0.0373650000000003
392.4,-0.0360920000000002
392.5999999999999,-0.0343800000000003
392.8,-0.0332960000000002
392.9999999999999,-0.0313720000000001
393.19999999999993,-0.0292910000000001
393.4,-0.0298980000000002
393.5999999999999,-0.0311550000000002
393.8,-0.0317190000000002
393.9999999999999,-0.0323040000000003
394.19999999999993,-0.0322800000000003
394.4,-0.0322450000000003
394.5999999999999,-0.0317470000000001
394.8,-0.0321760000000002
394.9999999999999,-0.0327500000000002
395.19999999999993,-0.0325410000000001
395.4,-0.0299830000000003
395.5999999999999,-0.0283820000000003
395.8,-0.0272660000000002
395.9999999999999,-0.0267860000000002
396.19999999999993,-0.0268910000000002
396.4,-0.0287180000000002
396.5999999999999,-0.0288950000000003
396.8,-0.0285150000000002
396.9999999999999,-0.0286170000000003
397.19999999999993,-0.0291790000000002
397.4,-0.0318550000000001
397.5999999999999,-0.0348000000000001
397.8,-0.0375790000000002
397.9999999999999,-0.0387610000000002
398.19999999999993,-0.0401250000000001
398.4,-0.0382040000000003
398.5999999999999,-0.0357920000000002
398.8,-0.0330300000000003
398.9999999999999,-0.0310860000000001
399.19999999999993,-0.0293610000000001
399.4,-0.0304130000000002
399.5999999999999,-0.0324620000000002
399.8,-0.0333500000000002
399.9999999999999,-0.0345880000000002
400.19999999999993,-0.0359040000000001
400.4,-0.0353440000000002
400.5999999999999,-0.0321130000000002
400.8,-0.0314340000000001
400.9999999999999,-0.0305400000000002
401.19999999999993,-0.0297420000000001
401.4,-0.0269930000000002
401.5999999999999,-0.0277390000000001
401.8,-0.0285030000000001
401.9999999999999,-0.0305540000000001
402.19999999999993,-0.0312410000000002
402.4,-0.0340950000000002
402.5999999999999,-0.0350250000000003
402.8,-0.0350770000000002
402.9999999999999,-0.0346630000000003
403.19999999999993,-0.0352690000000002
403.4,-0.0356810000000002
403.5999999999999,-0.0371380000000003
403.8,-0.0396370000000001
403.9999999999999,-0.0378920000000002
404.19999999999993,-0.0355290000000001
404.4,-0.0343380000000002
404.5999999999999,-0.0324080000000002
404.8,-0.0300580000000001
404.9999999999999,-0.0318670000000003
405.19999999999993,-0.0339800000000003
405.4,-0.0356660000000002
405.5999999999999,-0.0384280000000003
405.8,-0.0409180000000002
405.9999999999999,-0.0416280000000002
406.19999999999993,-0.0393450000000001
406.4,-0.0359480000000003
406.5999999999999,-0.0334090000000002
406.8,-0.0306000000000001
406.9999999999999,-0.0305640000000002
407.19999999999993,-0.0322870000000001
407.4,-0.0353760000000002
407.5999999999999,-0.0377950000000002
407.8,-0.0413930000000002
407.9999999999999,-0.0426920000000001
408.19999999999993,-0.0438850000000001
408.4,-0.0429000000000001
408.5999999999999,-0.0415530000000001
408.8,-0.0381380000000002
408.9999999999999,-0.0351040000000002
409.19999999999993,-0.0339810000000002
409.4,-0.0333920000000003
409.5999999999999,-0.0324160000000002
409.8,-0.0332290000000001
409.9999999999999,-0.0349500000000002
410.19999999999993,-0.0349230000000002
410.4,-0.0348380000000001
410.5999999999999,-0.0345960000000002
410.8,-0.0334670000000001
410.9999999999999,-0.0322680000000001
411.19999999999993,-0.0322750000000002
411.4,-0.0329480000000002
411.5999999999999,-0.0339440000000001
411.8,-0.0356170000000002
411.9999999999999,-0.0368280000000003
412.19999999999993,-0.0377000000000002
412.4,-0.0376160000000003
412.5999999999999,-0.0377550000000002
412.8,-0.0352750000000001
412.9999999999999,-0.0324680000000001
413.19999999999993,-0.0304640000000002
413.4,-0.0296640000000001
413.5999999999999,-0.0285520000000003
413.8,-0.0303220000000001
413.9999999999999,-0.0315340000000001
414.19999999999993,-0.0328840000000001
414.4,-0.0344030000000001
414.5999999999999,-0.0369480000000002
414.8,-0.0373020000000001
414.9999999999999,-0.0376240000000003
415.19999999999993,-0.0373700000000003
415.4,-0.0360790000000001
415.5999999999999,-0.0356750000000003
415.8,-0.0377260000000001
415.9999999999999,-0.0398740000000001
416.19999999999993,-0.0419490000000002
416.4,-0.0441010000000001
416.5999999999999,-0.0453870000000002
416.8,-0.0452040000000002
416.9999999999999,-0.0445490000000001
417.19999999999993,-0.0414140000000002
417.4,-0.0373800000000001
417.5999999999999,-0.0335950000000002
417.8,-0.0297470000000001
417.9999999999999,-0.0264720000000002
418.19999999999993,-0.0245610000000002
418.4,-0.0253410000000002
418.5999999999999,-0.0263370000000002
418.8,-0.0298180000000003
418.9999999999999,-0.0319910000000003
419.19999999999993,-0.0346930000000003
419.4,-0.0361080000000002
419.5999999999999,-0.0381460000000002
419.8,-0.0374190000000003
419.9999999999999,-0.0385120000000003
420.19999999999993,-0.0384310000000003
420.4,-0.0390940000000001
420.5999999999999,-0.0366320000000002
420.8,-0.0346890000000001
420.9999999999999,-0.0324640000000002
421.19999999999993,-0.0317910000000003
421.4,-0.0311640000000001
421.5999999999999,-0.0305120000000003
421.8,-0.0286100000000002
421.9999999999999,-0.0275980000000002
422.19999999999993,-0.0280010000000001
422.4,-0.0306810000000001
422.5999999999999,-0.0351520000000002
422.8,-0.0405050000000002
422.9999999999999,-0.0451900000000002
423.19999999999993,-0.0480360000000001
423.4,-0.0465280000000003
423.5999999999999,-0.0427340000000002
423.8,-0.0414320000000001
423.9999999999999,-0.0406760000000001
424.19999999999993,-0.0396430000000003
424.4,-0.0402530000000003
424.5999999999999,-0.0428060000000003
424.8,-0.0435830000000001
424.9999999999999,-0.0435460000000003
425.19999999999993,-0.0436170000000002
425.4,-0.0437400000000003
425.5999999999999,-0.0435280000000002
425.8,-0.0419260000000003
425.9999999999999,-0.0395340000000001
426.19999999999993,-0.0374210000000001
426.4,-0.0352740000000002
426.5999999999999,-0.0365760000000001
426.8,-0.0379950000000002
426.9999999999999,-0.0392830000000001
427.19999999999993,-0.0393290000000001
427.4,-0.0404640000000002
427.5999999999999,-0.0391040000000002
427.8,-0.0385690000000003
427.9999999999999,-0.0384110000000001
428.19999999999993,-0.0382220000000002
428.4,-0.0371640000000002
428.5999999999999,-0.0364320000000002
428.8,-0.0363730000000002
428.9999999999999,-0.0375760000000002
429.19999999999993,-0.0391260000000002
429.4,-0.0396940000000003
429.5999999999999,-0.0407180000000002
429.8,-0.0419520000000002
429.9999999999999,-0.0417450000000001
430.19999999999993,-0.0413870000000002
430.4,-0.0403760000000001
430.5999999999999,-0.0383730000000002
430.8,-0.0367620000000001
430.9999999999999,-0.0351200000000002
431.19999999999993,-0.0346020000000002
431.4,-0.0361200000000001
431.5999999999999,-0.0368730000000001
431.8,-0.0359850000000001
431.9999999999999,-0.0343000000000002
432.19999999999993,-0.0325300000000001
432.4,-0.0317450000000001
432.5999999999999,-0.0336180000000001
432.8,-0.0350480000000001
432.9999999999999,-0.0374720000000001
433.19999999999993,-0.0414500000000002
433.4,-0.0446230000000003
433.5999999999999,-0.0445430000000002
433.8,-0.0450220000000003
433.9999999999999,-0.0452990000000002
434.19999999999993,-0.0433510000000001
434.4,-0.0411380000000003
434.5999999999999,-0.0402250000000001
434.8,-0.0391520000000003
434.9999999999999,-0.0382340000000003
435.19999999999993,-0.0404960000000003
435.4,-0.0406440000000003
435.5999999999999,-0.0401900000000001
435.8,-0.0402960000000003
435.9999999999999,-0.0409530000000002
436.19999999999993,-0.0380690000000003
436.4,-0.0360270000000002
436.5999999999999,-0.0340740000000001
436.8,-0.0334370000000001
436.9999999999999,-0.0348590000000001
437.19999999999993,-0.0370700000000001
437.4,-0.0389400000000002
437.5999999999999,-0.0416920000000002
437.8,-0.0435840000000002
437.9999999999999,-0.0419210000000003
438.19999999999993,-0.0391200000000002
438.4,-0.0377100000000003
438.5999999999999,-0.0353660000000002
438.8,-0.0338930000000001
438.9999999999999,-0.0332220000000003
439.19999999999993,-0.0334400000000001
439.4,-0.0334790000000002
439.5999999999999,-0.0332390000000002
439.8,-0.0327180000000002
439.9999999999999,-0.0348600000000003
440.19999999999993,-0.0376210000000003
440.4,-0.0395540000000003
440.5999999999999,-0.0404340000000003
440.8,-0.0406400000000002
440.9999999999999,-0.0386540000000001
441.19999999999993,-0.0385000000000002
441.4,-0.0377590000000003
441.5999999999999,-0.0382020000000002
441.8,-0.0385040000000003
441.9999999999999,-0.0376950000000002
442.19999999999993,-0.0350990000000002
442.4,-0.0339820000000001
442.5999999999999,-0.0342400000000002
442.8,-0.0356810000000002
442.9999999999999,-0.0391430000000001
443.19999999999993,-0.0404240000000002
443.4,-0.0417590000000003
443.5999999999999,-0.0433410000000002
443.8,-0.0447940000000002
443.9999999999999,-0.0451850000000002
444.19999999999993,-0.0444390000000003
444.4,-0.0437000000000002
444.5999999999999,-0.0411020000000001
444.8,-0.0384830000000002
444.9999999999999,-0.0363720000000002
445.19999999999993,-0.0378890000000002
445.4,-0.0368490000000003
445.5999999999999,-0.0364330000000001
445.8,-0.0359310000000001
445.9999999999999,-0.0364210000000002
446.19999999999993,-0.0369930000000002
446.4,-0.0381520000000001
446.5999999999999,-0.0382270000000002
446.8,-0.0367730000000001
446.9999999999999,-0.0362390000000003
447.19999999999993,-0.0346850000000003
447.4,-0.0351580000000002
447.5999999999999,-0.0367680000000001
447.8,-0.0378980000000002
447.9999999999999,-0.0365010000000003
448.19999999999993,-0.0370450000000002
448.4,-0.0368930000000002
448.5999999999999,-0.0360420000000003
448.8,-0.0360000000000002
448.9999999999999,-0.0364480000000002
449.19999999999993,-0.0369270000000001
449.4,-0.0385850000000003
449.5999999999999,-0.0426030000000001
449.8,-0.0466320000000002
449.9999999999999,-0.0485030000000001
450.19999999999993,-0.0478260000000001
450.4,-0.0478200000000001
450.5999999999999,-0.0449620000000001
450.8,-0.0419790000000002
450.9999999999999,-0.0400450000000003
451.19999999999993,-0.0386660000000003
451.4,-0.0363580000000003
451.5999999999999,-0.0348940000000002
451.8,-0.0339540000000002
451.9999999999999,-0.0345710000000003
452.19999999999993,-0.0349580000000002
452.4,-0.0353570000000003
452.5999999999999,-0.0372120000000002
452.8,-0.0399620000000002
452.9999999999999,-0.0416850000000001
453.19999999999993,-0.0410200000000002
453.4,-0.0388730000000001
453.5999999999999,-0.0372120000000002
453.8,-0.0353390000000002
453.9999999999999,-0.0348570000000001
454.19999999999993,-0.0392540000000003
454.4,-0.0425590000000002
454.5999999999999,-0.0443020000000002
454.8,-0.0435830000000001
454.9999999999999,-0.0429030000000001
455.19999999999993,-0.0396530000000001
455.4,-0.0394840000000003
455.5999999999999,-0.0379850000000001
455.8,-0.0386030000000001
455.9999999999999,-0.0384360000000001
456.19999999999993,-0.0396520000000002
456.4,-0.0396100000000001
456.5999999999999,-0.0400890000000002
456.8,-0.0396100000000001
456.9999999999999,-0.0390410000000003
457.19999999999993,-0.0405880000000002
457.4,-0.0409500000000002
457.5999999999999,-0.0419110000000002
457.8,-0.0406880000000002
457.9999999999999,-0.0403630000000001
458.19999999999993,-0.0387700000000001
458.4,-0.0379530000000003
458.5999999999999,-0.0375950000000002
458.8,-0.0392800000000002
458.9999999999999,-0.0411860000000001
459.19999999999993,-0.0411630000000002
459.4,-0.0427380000000001
459.5999999999999,-0.0427160000000002
459.8,-0.0420090000000001
459.9999999999999,-0.0406210000000002
460.19999999999993,-0.0413200000000002
460.4,-0.0401790000000001
460.5999999999999,-0.0398520000000002
460.8,-0.0409090000000003
460.9999999999999,-0.0420620000000002
461.19999999999993,-0.0400990000000003
461.4,-0.0398510000000003
461.5999999999999,-0.0409870000000003
461.8,-0.0434410000000002
461.9999999999999,-0.0436800000000001
462.19999999999993,-0.0440530000000003
462.4,-0.0434440000000002
462.5999999999999,-0.0430250000000003
462.8,-0.0412460000000003
462.9999999999999,-0.0412120000000002
463.19999999999993,-0.0424990000000002
463.4,-0.0436600000000002
463.5999999999999,-0.0430230000000002
463.8,-0.0422040000000003
463.9999999999999,-0.0406820000000003
464.19999999999993,-0.0387050000000002
464.4,-0.0380820000000001
464.5999999999999,-0.0379920000000002
464.8,-0.0385490000000001
464.9999999999999,-0.0412440000000002
465.19999999999993,-0.0436120000000002
465.4,-0.0441670000000002
465.5999999999999,-0.0439800000000003
465.8,-0.0423390000000003
465.9999999999999,-0.0381250000000001
466.19999999999993,-0.0364070000000003
466.4,-0.0337690000000001
466.5999999999999,-0.0322340000000003
466.8,-0.0307790000000003
466.9999999999999,-0.0326080000000001
467.19999999999993,-0.0321560000000002
467.4,-0.0330320000000001
467.5999999999999,-0.0334970000000003
467.8,-0.0350910000000002
467.9999999999999,-0.0358180000000003
468.19999999999993,-0.0374380000000003
468.4,-0.0397550000000002
468.5999999999999,-0.0407840000000001
468.8,-0.0419340000000001
468.9999999999999,-0.0413750000000001
469.19999999999993,-0.0418250000000002
469.4,-0.0418810000000002
469.5999999999999,-0.0439610000000001
469.8,-0.0441040000000001
469.9999999999999,-0.0454920000000003
470.19999999999993,-0.0455250000000002
470.4,-0.0465250000000001
470.5999999999999,-0.0465730000000002
470.8,-0.0470620000000001
470.9999999999999,-0.0452480000000001
471.19999999999993,-0.0436550000000002
471.4,-0.0410030000000003
471.5999999999999,-0.0384310000000003
471.8,-0.0386080000000002
471.9999999999999,-0.0413960000000002
472.19999999999993,-0.0443140000000001
472.4,-0.0455650000000003
472.5999999999999,-0.0470820000000002
472.8,-0.0474460000000003
472.9999999999999,-0.0457450000000001
473.19999999999993,-0.0449200000000002
473.4,-0.0446740000000003
473.5999999999999,-0.0444360000000001
473.8,-0.0447880000000002
473.9999999999999,-0.0463510000000002
474.19999999999993,-0.0459670000000003
474.4,-0.0445160000000002
474.5999999999999,-0.0436850000000001
474.8,-0.0414090000000002
474.9999999999999,-0.0405170000000001
475.19999999999993,-0.0394660000000002
475.4,-0.0390720000000002
475.5999999999999,-0.0384260000000002
475.8,-0.0381200000000001
475.9999999999999,-0.0363990000000002
476.19999999999993,-0.0353450000000001
476.4,-0.0362710000000001
476.5999999999999,-0.0356810000000002
476.8,-0.0368080000000001
476.9999999999999,-0.0369330000000003
477.19999999999993,-0.0381470000000001
477.4,-0.0387640000000002
477.5999999999999,-0.0416280000000002
477.8,-0.0432680000000003
477.9999999999999,-0.0458520000000002
478.19999999999993,-0.0472680000000003
478.4,-0.0478110000000002
478.5999999999999,-0.0475410000000002
478.8,-0.0470560000000002
478.9999999999999,-0.0465470000000003
479.19999999999993,-0.0446960000000002
479.4,-0.0423380000000002
479.5999999999999,-0.0404690000000003
479.8,-0.0381800000000003
479.9999999999999,-0.0373360000000002
480.19999999999993,-0.0393220000000003
480.4,-0.0445810000000002
480.5999999999999,-0.0467310000000003
480.8,-0.0488770000000002
480.9999999999999,-0.0491530000000002
481.19999999999993,-0.0484930000000003
481.4,-0.0472900000000002
481.5999999999999,-0.0491460000000001
481.8,-0.0508940000000002
481.9999999999999,-0.0507870000000001
482.19999999999993,-0.0481270000000002
482.4,-0.0450490000000003
482.5999999999999,-0.0414580000000002
482.8,-0.0382870000000001
482.9999999999999,-0.0394110000000003
483.19999999999993,-0.0440810000000002
483.4,-0.0465560000000002
483.5999999999999,-0.0481480000000003
483.8,-0.0498090000000002
483.9999999999999,-0.0486640000000002
484.19999999999993,-0.0466650000000001
484.4,-0.0451770000000002
484.5999999999999,-0.0453550000000002
484.8,-0.0465830000000002
484.9999999999999,-0.0489180000000002
485.19999999999993,-0.0498970000000003
485.4,-0.0498330000000002
485.5999999999999,-0.0479540000000002
485.8,-0.0429670000000002
485.9999999999999,-0.0393970000000003
486.19999999999993,-0.0370620000000001
486.4,-0.0390650000000003
486.5999999999999,-0.0411390000000002
486.8,-0.0446590000000002
486.9999999999999,-0.0472430000000001
487.19999999999993,-0.0494540000000003
487.4,-0.0477770000000001
487.5999999999999,-0.0469000000000001
487.8,-0.0457020000000003
487.9999999999999,-0.0433630000000002
488.19999999999993,-0.0402270000000002
488.4,-0.0411110000000003
488.5999999999999,-0.0418590000000003
488.8,-0.0431910000000002
488.9999999999999,-0.0444390000000003
489.19999999999993,-0.0465490000000001
489.4,-0.0450620000000001
489.5999999999999,-0.0439790000000002
489.8,-0.0424800000000002
489.9999999999999,-0.0407740000000003
490.19999999999993,-0.0392200000000002
490.4,-0.0405910000000002
490.5999999999999,-0.0435580000000002
490.8,-0.0463740000000001
490.9999999999999,-0.0489220000000003
491.19999999999993,-0.0506820000000003
491.4,-0.0506830000000002
491.5999999999999,-0.0506720000000002
491.8,-0.0511970000000001
491.9999999999999,-0.0522850000000001
492.19999999999993,-0.0533790000000002
492.4,-0.0545910000000002
492.5999999999999,-0.0526510000000002
492.8,-0.0509240000000001
492.9999999999999,-0.0492550000000002
493.19999999999993,-0.0503630000000001
493.4,-0.0495360000000002
493.5999999999999,-0.0490160000000001
493.8,-0.0477300000000002
493.9999999999999,-0.0472240000000001
494.19999999999993,-0.0446680000000001
494.4,-0.0439200000000001
494.5999999999999,-0.0442020000000003
494.8,-0.0439340000000001
494.9999999999999,-0.0443030000000002
495.19999999999993,-0.0440400000000003
495.4,-0.0443100000000002
495.5999999999999,-0.0436400000000003
495.8,-0.0446470000000003
495.9999999999999,-0.0454190000000003
496.19999999999993,-0.0462350000000002
496.4,-0.0439430000000002
496.5999999999999,-0.0430330000000003
496.8,-0.0401750000000002
496.9999999999999,-0.0385140000000001
497.19999999999993,-0.0375790000000002
497.4,-0.0388350000000001
497.5999999999999,-0.0385350000000002
497.8,-0.0392020000000001
497.9999999999999,-0.0372700000000001
498.19999999999993,-0.0360910000000003
498.4,-0.0356460000000002
498.5999999999999,-0.0361230000000003
498.8,-0.0372830000000001
498.9999999999999,-0.0392420000000002
499.19999999999993,-0.0414580000000002
499.4,-0.0430010000000002
499.5999999999999,-0.0454850000000002
499.8,-0.0474020000000001
499.9999999999999,-0.0496530000000001
500.19999999999993,-0.0514350000000003
500.4,-0.0536730000000003
500.5999999999999,-0.0525070000000003
500.8,-0.0510900000000003
500.9999999999999,-0.0493070000000002
501.19999999999993,-0.0468830000000002
501.4,-0.0439630000000001
501.5999999999999,-0.0441270000000002
501.8,-0.0451300000000003
501.9999999999999,-0.0453340000000002
502.19999999999993,-0.0433810000000003
502.4,-0.0417760000000002
502.5999999999999,-0.0400100000000003
502.8,-0.0391080000000001
502.9999999999999,-0.0399420000000001
503.19999999999993,-0.0424710000000001
503.4,-0.0440920000000002
503.5999999999999,-0.0454400000000001
503.8,-0.0461260000000003
503.9999999999999,-0.0473010000000002
504.19999999999993,-0.0482910000000003
504.4,-0.0508100000000002
504.5999999999999,-0.0508550000000003
504.8,-0.0498980000000002
504.9999999999999,-0.0479970000000002
505.19999999999993,-0.0482830000000003
505.4,-0.0482940000000002
505.5999999999999,-0.0497120000000002
505.8,-0.0511930000000002
505.9999999999999,-0.0526490000000001
506.19999999999993,-0.0527920000000001
506.4,-0.0510530000000002
506.5999999999999,-0.0486830000000002
506.8,-0.0468990000000002
506.9999999999999,-0.0450690000000002
507.19999999999993,-0.0439430000000002
507.4,-0.0447640000000002
507.5999999999999,-0.0464460000000002
507.8,-0.0476760000000002
507.9999999999999,-0.0478040000000001
508.19999999999993,-0.0483540000000002
508.4,-0.0481570000000002
508.5999999999999,-0.0485280000000003
508.8,-0.0495250000000002
508.99999999999983,-0.0505460000000002
509.1999999999999,-0.0507400000000002
509.3999999999999,-0.0507180000000002
509.6,-0.0487030000000001
509.8,-0.0455920000000003
509.99999999999983,-0.0437110000000002
510.1999999999999,-0.0414600000000002
510.3999999999999,-0.0403350000000002
510.6,-0.0425440000000001
510.8,-0.0447070000000002
510.99999999999983,-0.0441770000000003
511.1999999999999,-0.0441600000000002
511.3999999999999,-0.0431390000000002
511.6,-0.0409490000000003
511.8,-0.0397120000000001
511.99999999999983,-0.0399300000000002
512.1999999999998,-0.0377450000000001
512.3999999999999,-0.0365770000000003
512.5999999999999,-0.0341620000000002
512.8,-0.0334020000000001
512.9999999999998,-0.0351280000000002
513.1999999999998,-0.0389560000000002
513.3999999999999,-0.0416800000000001
513.5999999999999,-0.0441880000000003
513.8,-0.0475180000000001
513.9999999999998,-0.0478930000000001
514.1999999999998,-0.0492740000000002
514.3999999999999,-0.0487930000000003
514.5999999999999,-0.0486950000000001
514.8,-0.0455040000000002
514.9999999999998,-0.0425730000000001
515.1999999999998,-0.0398050000000003
515.3999999999999,-0.0414810000000003
515.5999999999999,-0.0446040000000003
515.8,-0.0459260000000001
515.9999999999998,-0.0463730000000002
516.1999999999998,-0.0465330000000001
516.3999999999999,-0.0455230000000002
516.5999999999999,-0.0439290000000003
516.8,-0.0442420000000003
516.9999999999998,-0.0450200000000002
517.1999999999998,-0.0447750000000002
517.3999999999999,-0.0430500000000002
517.5999999999999,-0.0426080000000002
517.8,-0.0428080000000001
517.9999999999998,-0.0451790000000003
518.1999999999998,-0.0462820000000001
518.3999999999999,-0.0471880000000002
518.5999999999999,-0.0474230000000002
518.8,-0.0464730000000002
518.9999999999998,-0.0442550000000001
519.1999999999998,-0.0428640000000002
519.3999999999999,-0.0437220000000002
519.5999999999999,-0.0433840000000003
519.8,-0.0441930000000001
519.9999999999998,-0.0455670000000001
520.1999999999998,-0.0466520000000001
520.3999999999999,-0.0467680000000001
520.5999999999999,-0.0484960000000003
520.8,-0.0495720000000001
520.9999999999998,-0.0494570000000003
521.1999999999998,-0.0485640000000002
521.3999999999999,-0.0470620000000001
521.5999999999999,-0.0454910000000001
521.8,-0.0462500000000003
521.9999999999998,-0.0481550000000001
522.1999999999998,-0.0506560000000002
522.3999999999999,-0.0514800000000001
522.5999999999999,-0.0526490000000001
522.8,-0.0512300000000003
522.9999999999998,-0.0492800000000002
523.1999999999998,-0.0472420000000002
523.3999999999999,-0.0473850000000002
523.5999999999999,-0.0449570000000001
523.8,-0.0464610000000003
523.9999999999998,-0.0442340000000003
524.1999999999998,-0.0440460000000002
524.3999999999999,-0.0437640000000001
524.5999999999999,-0.0462120000000001
524.8,-0.0442270000000002
524.9999999999998,-0.0458820000000002
525.1999999999998,-0.0470340000000002
525.3999999999999,-0.0485030000000001
525.5999999999999,-0.0515780000000003
525.8,-0.0546870000000001
525.9999999999998,-0.0572550000000002
526.1999999999998,-0.0566490000000001
526.3999999999999,-0.0565140000000001
526.5999999999999,-0.0536770000000002
526.8,-0.0515690000000002
526.9999999999998,-0.0501610000000003
527.1999999999998,-0.0499950000000002
527.3999999999999,-0.0492020000000001
527.5999999999999,-0.0478950000000002
527.8,-0.0474680000000002
527.9999999999998,-0.0466590000000002
528.1999999999998,-0.0476810000000003
528.3999999999999,-0.0488590000000002
528.5999999999999,-0.0515000000000003
528.8,-0.0520190000000002
528.9999999999998,-0.0507230000000002
529.1999999999998,-0.0472450000000002
529.3999999999999,-0.0431480000000001
529.5999999999999,-0.0404500000000003
529.8,-0.0388580000000002
529.9999999999998,-0.0403750000000002
530.1999999999998,-0.0426180000000002
530.3999999999999,-0.0437000000000002
530.5999999999999,-0.0422170000000001
530.8,-0.0421520000000001
530.9999999999998,-0.0445880000000002
531.1999999999998,-0.0457600000000002
531.3999999999999,-0.0469550000000003
531.5999999999999,-0.0477300000000002
531.8,-0.0488190000000001
531.9999999999998,-0.0452340000000002
532.1999999999998,-0.0420100000000003
532.3999999999999,-0.0393110000000003
532.5999999999999,-0.0393200000000002
532.8,-0.0405270000000002
532.9999999999998,-0.0418970000000002
533.1999999999998,-0.0444440000000001
533.3999999999999,-0.0472430000000001
533.5999999999999,-0.0486970000000002
533.8,-0.0473310000000002
533.9999999999998,-0.0475940000000001
534.1999999999998,-0.0489230000000002
534.3999999999999,-0.0519860000000003
534.5999999999999,-0.0529980000000003
534.8,-0.0528890000000001
534.9999999999998,-0.0498620000000002
535.1999999999998,-0.0469250000000003
535.3999999999999,-0.0432690000000002
535.5999999999999,-0.0416890000000003
535.8,-0.0436060000000002
535.9999999999998,-0.0457170000000002
536.1999999999998,-0.0479760000000002
536.3999999999999,-0.0481480000000003
536.5999999999999,-0.0479180000000003
536.8,-0.0464010000000001
536.9999999999998,-0.0464110000000002
537.1999999999998,-0.0454670000000001
537.3999999999999,-0.0448660000000002
537.5999999999999,-0.0430710000000003
537.8,-0.0422360000000001
537.9999999999998,-0.0421760000000002
538.1999999999998,-0.0428430000000001
538.3999999999999,-0.0441400000000002
538.5999999999999,-0.0440550000000001
538.8,-0.0419200000000001
538.9999999999998,-0.0396060000000002
539.1999999999998,-0.0381870000000001
539.3999999999999,-0.0381670000000002
539.5999999999999,-0.0426360000000003
539.8,-0.0473730000000003
539.9999999999998,-0.0522360000000001
540.1999999999998,-0.0541020000000003
540.3999999999999,-0.0544510000000002
540.5999999999999,-0.0532860000000001
540.8,-0.0529180000000002
540.9999999999998,-0.0526410000000001
541.1999999999998,-0.0528800000000002
541.3999999999999,-0.0540170000000002
541.5999999999999,-0.0537820000000002
541.8,-0.0517390000000002
541.9999999999998,-0.0505390000000003
542.1999999999998,-0.0516180000000001
542.3999999999999,-0.0513610000000002
542.5999999999999,-0.0505680000000001
542.8,-0.0502180000000003
542.9999999999998,-0.0494490000000003
543.1999999999998,-0.0482040000000001
543.3999999999999,-0.0481540000000002
543.5999999999999,-0.0473520000000002
543.8,-0.0454500000000002
543.9999999999998,-0.0435520000000002
544.1999999999998,-0.0424580000000003
544.3999999999999,-0.0424790000000001
544.5999999999999,-0.0454220000000002
544.8,-0.0488000000000001
544.9999999999998,-0.0503810000000002
545.1999999999998,-0.0496440000000002
545.3999999999999,-0.0487720000000002
545.5999999999999,-0.0481450000000003
545.8,-0.0490470000000002
545.9999999999998,-0.0497380000000002
546.1999999999998,-0.0501380000000002
546.3999999999999,-0.0491960000000002
546.5999999999999,-0.0460120000000001
546.8,-0.0422260000000003
546.9999999999998,-0.0408780000000001
547.1999999999998,-0.0407070000000002
547.3999999999999,-0.0398180000000003
547.5999999999999,-0.0408110000000001
547.8,-0.0436080000000003
547.9999999999998,-0.0449380000000001
548.1999999999998,-0.0460240000000002
548.3999999999999,-0.0477240000000003
548.5999999999999,-0.0494350000000003
548.8,-0.0491630000000002
548.9999999999998,-0.0482950000000002
549.1999999999998,-0.0473170000000002
549.3999999999999,-0.0449520000000003
549.5999999999999,-0.0429060000000003
549.8,-0.0422540000000002
549.9999999999998,-0.0443390000000003
550.1999999999998,-0.0461560000000003
550.3999999999999,-0.0475700000000003
550.5999999999999,-0.0485320000000002
550.8,-0.0489020000000002
550.9999999999998,-0.0482590000000002
551.1999999999998,-0.0481910000000003
551.3999999999999,-0.0495190000000003
551.5999999999999,-0.0505240000000002
551.8,-0.0502620000000002
551.9999999999998,-0.0510250000000003
552.1999999999998,-0.0515160000000003
552.3999999999999,-0.0530120000000002
552.5999999999999,-0.0523950000000001
552.8,-0.0529700000000001
552.9999999999998,-0.0511160000000001
553.1999999999998,-0.0503480000000002
553.3999999999999,-0.0491490000000003
553.5999999999999,-0.0495310000000002
553.8,-0.0480970000000002
553.9999999999998,-0.0481720000000003
554.1999999999998,-0.0482340000000003
554.3999999999999,-0.0480980000000001
554.5999999999999,-0.0474720000000001
554.8,-0.0492680000000003
554.9999999999998,-0.0504660000000003
555.1999999999998,-0.0513270000000003
555.3999999999999,-0.0521280000000001
555.5999999999999,-0.0519240000000003
555.8,-0.0497130000000003
555.9999999999998,-0.0477260000000001
556.1999999999998,-0.0462590000000002
556.3999999999999,-0.0446310000000003
556.5999999999999,-0.0456550000000002
556.8,-0.0485180000000002
556.9999999999998,-0.0537750000000003
557.1999999999998,-0.0573290000000001
557.3999999999999,-0.0596460000000003
557.5999999999999,-0.0593630000000002
557.8,-0.0580450000000003
557.9999999999998,-0.0535030000000003
558.1999999999998,-0.0488800000000002
558.3999999999999,-0.0466610000000002
558.5999999999999,-0.0470510000000001
558.8,-0.0496270000000003
558.9999999999998,-0.0527100000000002
559.1999999999998,-0.0548330000000003
559.3999999999999,-0.0545820000000003
559.5999999999999,-0.0535860000000001
559.8,-0.0518150000000001
559.9999999999998,-0.0478510000000003
560.1999999999998,-0.0456680000000002
560.3999999999999,-0.0444580000000003
560.5999999999999,-0.0445370000000002
560.8,-0.0436670000000003
560.9999999999998,-0.0455530000000001
561.1999999999998,-0.0481210000000003
561.3999999999999,-0.0510890000000001
561.5999999999999,-0.0522320000000002
561.8,-0.0533040000000002
561.9999999999998,-0.0531960000000002
562.1999999999998,-0.0510140000000003
562.3999999999999,-0.0482360000000001
562.5999999999999,-0.0448970000000001
562.8,-0.0437190000000002
562.9999999999998,-0.0441620000000002
563.1999999999998,-0.0459220000000002
563.3999999999999,-0.0467180000000002
563.5999999999999,-0.0495220000000002
563.8,-0.0495950000000002
563.9999999999998,-0.0489390000000002
564.1999999999998,-0.0483920000000002
564.3999999999999,-0.0507650000000001
564.5999999999999,-0.0517200000000002
564.8,-0.0537120000000002
564.9999999999998,-0.0548920000000001
565.1999999999998,-0.0553350000000001
565.3999999999999,-0.0543260000000003
565.5999999999999,-0.0527780000000002
565.8,-0.0505340000000003
565.9999999999998,-0.0502780000000002
566.1999999999998,-0.0507830000000002
566.3999999999999,-0.0525700000000002
566.5999999999999,-0.0529230000000002
566.8,-0.0531160000000001
566.9999999999998,-0.0513280000000002
567.1999999999998,-0.0511940000000001
567.3999999999999,-0.0523130000000002
567.5999999999999,-0.0553080000000001
567.8,-0.0573550000000002
567.9999999999998,-0.0589700000000001
568.1999999999998,-0.0598660000000002
568.3999999999999,-0.0584070000000003
568.5999999999999,-0.0566010000000003
568.8,-0.0557480000000003
568.9999999999998,-0.0553160000000001
569.1999999999998,-0.0534450000000001
569.3999999999999,-0.0521850000000001
569.5999999999999,-0.0509550000000003
569.8,-0.0503730000000002
569.9999999999998,-0.0497020000000001
570.1999999999998,-0.0495210000000001
570.3999999999999,-0.0498360000000002
570.5999999999999,-0.0522050000000002
570.7999999999997,-0.0534110000000003
570.9999999999998,-0.0554370000000001
571.1999999999998,-0.0554740000000002
571.3999999999999,-0.0550440000000003
571.5999999999999,-0.0532980000000002
571.7999999999997,-0.0524330000000001
571.9999999999998,-0.0513010000000002
572.1999999999998,-0.0513120000000002
572.3999999999999,-0.0514210000000001
572.5999999999999,-0.0511210000000001
572.7999999999997,-0.0508600000000003
572.9999999999998,-0.0495910000000001
573.1999999999998,-0.0489110000000001
573.3999999999999,-0.0472760000000003
573.5999999999999,-0.0454460000000003
573.7999999999997,-0.0430340000000002
573.9999999999998,-0.0432690000000002
574.1999999999998,-0.0448100000000002
574.3999999999999,-0.0474420000000002
574.5999999999999,-0.0484030000000001
574.7999999999997,-0.0505230000000003
574.9999999999998,-0.0515050000000001
575.1999999999998,-0.0501540000000002
575.3999999999999,-0.0495180000000001
575.5999999999999,-0.0512610000000002
575.7999999999997,-0.0534080000000003
575.9999999999998,-0.0548420000000002
576.1999999999998,-0.0565020000000002
576.3999999999999,-0.0560430000000002
576.5999999999999,-0.0548290000000002
576.7999999999997,-0.0531290000000002
576.9999999999998,-0.0516280000000002
577.1999999999998,-0.0496710000000002
577.3999999999999,-0.0473490000000003
577.5999999999999,-0.0460040000000001
577.7999999999997,-0.0438750000000003
577.9999999999998,-0.0429950000000003
578.1999999999998,-0.0440090000000001
578.3999999999999,-0.0465900000000003
578.5999999999999,-0.0489740000000002
578.7999999999997,-0.0505350000000002
578.9999999999998,-0.0509210000000002
579.1999999999998,-0.0502370000000003
579.3999999999999,-0.0489900000000003
579.5999999999999,-0.0476930000000002
579.7999999999997,-0.0475630000000002
579.9999999999998,-0.0471300000000003
580.1999999999998,-0.0456530000000001
580.3999999999999,-0.0474090000000002
580.5999999999999,-0.0467220000000001
580.7999999999997,-0.0463760000000001
580.9999999999998,-0.0450010000000002
581.1999999999998,-0.0449760000000003
581.3999999999999,-0.0429910000000002
581.5999999999999,-0.0425750000000002
581.7999999999997,-0.0431280000000002
581.9999999999998,-0.0445640000000002
582.1999999999998,-0.0453410000000003
582.3999999999999,-0.0449100000000002
582.5999999999999,-0.0454890000000003
582.7999999999997,-0.0453780000000001
582.9999999999998,-0.0465480000000002
583.1999999999998,-0.0478590000000003
583.3999999999999,-0.0470950000000003
583.5999999999999,-0.0458570000000002
583.7999999999997,-0.0438050000000003
583.9999999999998,-0.0438250000000002
584.1999999999998,-0.0467200000000003
584.3999999999999,-0.0523240000000002
584.5999999999999,-0.0573470000000002
584.7999999999997,-0.0588340000000002
584.9999999999998,-0.0561680000000002
585.1999999999998,-0.0509600000000003
585.3999999999999,-0.0480350000000002
585.5999999999999,-0.0450540000000001
585.7999999999997,-0.0446780000000002
585.9999999999998,-0.0447070000000002
586.1999999999998,-0.0481190000000002
586.3999999999999,-0.0486300000000001
586.5999999999999,-0.0491520000000003
586.7999999999997,-0.0498070000000001
586.9999999999998,-0.0521020000000003
587.1999999999998,-0.0513930000000002
587.3999999999999,-0.0519990000000003
587.5999999999999,-0.0539520000000002
587.7999999999997,-0.0548630000000003
587.9999999999998,-0.0544130000000002
588.1999999999998,-0.0534210000000001
588.3999999999999,-0.0536040000000002
588.5999999999999,-0.0531550000000002
588.7999999999997,-0.0545550000000003
588.9999999999998,-0.0551060000000003
589.1999999999998,-0.0571150000000002
589.3999999999999,-0.0565310000000003
589.5999999999999,-0.0550390000000002
589.7999999999997,-0.0530560000000002
589.9999999999998,-0.0538030000000002
590.1999999999998,-0.0537760000000002
590.3999999999999,-0.0550260000000002
590.5999999999999,-0.0572100000000002
590.7999999999997,-0.0590630000000003
590.9999999999998,-0.0588270000000001
591.1999999999998,-0.0578430000000003
591.3999999999999,-0.0560320000000003
591.5999999999999,-0.0539990000000003
591.7999999999997,-0.0541380000000002
591.9999999999998,-0.0552010000000002
592.1999999999998,-0.0554480000000001
592.3999999999999,-0.0538140000000002
592.5999999999999,-0.0540430000000002
592.7999999999997,-0.0522220000000002
592.9999999999998,-0.0502350000000002
593.1999999999998,-0.0498780000000003
593.3999999999999,-0.0507050000000002
593.5999999999999,-0.0498670000000003
593.7999999999997,-0.0491600000000003
593.9999999999998,-0.0487860000000002
594.1999999999998,-0.0483590000000002
594.3999999999999,-0.0475140000000002
594.5999999999999,-0.0486480000000002
594.7999999999997,-0.0485670000000002
594.9999999999998,-0.0486290000000002
595.1999999999998,-0.0500170000000002
595.3999999999999,-0.0528800000000002
595.5999999999999,-0.0526760000000001
595.7999999999997,-0.0528160000000001
595.9999999999998,-0.0520340000000001
