Time (s),Shift (nm)
0.0,0.0
0.1999999999999886,0.001363
0.4000000000000341,0.0027599999999998
0.6000000000000227,0.0039379999999999
0.8000000000000114,0.0055289999999998
1.0,0.0071769999999997
1.2000000000000457,0.0068299999999998
1.400000000000034,0.0068489999999998
1.6000000000000227,0.0058179999999998
1.8000000000000114,0.0028909999999999
2.0,-0.0001380000000001
2.200000000000045,-0.0013510000000001
2.400000000000034,-0.0046840000000001
2.6000000000000227,-0.0062250000000001
2.800000000000012,-0.0075530000000001
3.0,-0.0056
3.200000000000045,-0.00259
3.400000000000034,0.0034739999999999
3.6000000000000227,0.0076469999999999
3.8000000000000114,0.0123729999999999
4.0,0.0120929999999999
4.2000000000000455,0.0080389999999999
4.400000000000034,0.0013579999999999
4.600000000000023,-0.0023900000000001
4.800000000000011,-0.0051420000000002
5.0,-0.0035900000000002
5.2000000000000455,0.0003009999999998
5.400000000000034,0.0075569999999998
5.600000000000023,0.0110379999999998
5.800000000000011,0.0111039999999997
6.0,0.0106789999999998
6.2000000000000455,0.0095069999999999
6.400000000000034,0.0054889999999998
6.600000000000023,0.0024559999999997
6.800000000000011,0.0018049999999998
7.0,0.0001459999999997
7.2000000000000455,-0.001171
7.400000000000034,-0.0014690000000001
7.600000000000023,-0.0019650000000002
7.800000000000011,-0.001365
8.0,-0.0023160000000002
8.200000000000045,-0.0025720000000002
8.400000000000034,-0.0027720000000002
8.600000000000023,-0.001929
8.800000000000011,-0.0013280000000002
9.0,0.0012079999999998
9.200000000000044,0.0029349999999999
9.400000000000034,0.0054379999999998
9.600000000000025,0.0054409999999998
9.800000000000011,0.0058439999999999
10.0,0.0070099999999999
10.200000000000044,0.0086099999999997
10.400000000000034,0.0072079999999998
10.600000000000025,0.0069889999999999
10.800000000000011,0.0068829999999999
11.0,0.0053789999999998
11.200000000000044,0.0006359999999998
11.400000000000034,-0.0012740000000002
11.600000000000025,-0.000903
11.800000000000011,-0.0012750000000001
12.0,-0.0028640000000001
12.200000000000044,-0.0007140000000001
12.400000000000034,0.0036179999999998
12.600000000000025,0.0048669999999999
12.800000000000011,0.0037159999999998
13.0,0.0040829999999998
13.200000000000044,0.0036189999999998
13.400000000000034,-0.0007410000000001
13.600000000000025,-0.002828
13.800000000000011,-0.0013260000000001
14.0,-0.0006890000000001
14.200000000000044,-0.0004050000000002
14.400000000000034,0.0005229999999998
14.600000000000025,0.0012419999999999
14.800000000000011,-0.001152
15.0,-0.003157
15.200000000000044,-0.0029990000000001
15.400000000000034,-0.0027260000000002
15.600000000000025,-0.0015450000000001
15.800000000000011,0.0012119999999997
16.0,0.0053179999999999
16.200000000000045,0.0073999999999998
16.400000000000034,0.0090689999999997
16.600000000000023,0.0081209999999998
16.80000000000001,0.0067439999999998
17.0,0.0048489999999998
17.200000000000045,0.0054709999999997
17.400000000000034,0.0058319999999998
17.600000000000023,0.0067409999999998
17.80000000000001,0.0081289999999998
18.0,0.0093879999999999
18.200000000000045,0.0103919999999999
18.400000000000038,0.0092799999999999
18.600000000000023,0.0105109999999999
18.80000000000001,0.0095779999999998
19.0,0.0105159999999999
19.200000000000045,0.0091999999999998
19.400000000000038,0.0119259999999998
19.600000000000023,0.0100919999999997
19.80000000000001,0.0098189999999998
20.0,0.0076629999999999
20.200000000000045,0.0086769999999998
20.400000000000038,0.0092689999999999
20.600000000000023,0.0117189999999998
20.80000000000001,0.0121669999999998
21.0,0.0130359999999998
21.200000000000045,0.0095229999999999
21.400000000000038,0.0053569999999998
21.600000000000023,0.0022039999999998
21.80000000000001,0.0002949999999999
22.0,-0.0019960000000001
22.200000000000045,-0.0037390000000001
22.400000000000038,-0.005141
22.600000000000023,-0.0051130000000001
22.80000000000001,-0.0052820000000002
23.0,-0.0041080000000002
23.200000000000045,-0.001859
23.400000000000038,-0.001354
23.600000000000023,-0.003767
23.80000000000001,-0.0054090000000002
24.0,-0.0079070000000001
24.200000000000045,-0.0087700000000001
24.400000000000038,-0.0094180000000001
24.600000000000023,-0.0101890000000002
24.80000000000001,-0.0102300000000001
25.0,-0.009303
25.200000000000045,-0.0092740000000002
25.400000000000038,-0.0081890000000002
25.600000000000023,-0.0032820000000002
25.80000000000001,0.0013159999999998
26.0,0.0043369999999998
26.200000000000045,0.0068959999999997
26.400000000000038,0.0100209999999998
26.600000000000023,0.0104089999999998
26.80000000000001,0.0101469999999999
27.0,0.0086969999999999
27.200000000000045,0.0059519999999999
27.400000000000038,0.0018739999999999
27.600000000000023,-0.0015140000000002
27.80000000000001,-0.0024940000000002
28.0,-0.001856
28.200000000000045,5.999999999950489e-06
28.400000000000038,0.0025959999999998
28.600000000000023,0.0059099999999998
28.80000000000001,0.0108329999999998
29.0,0.0128449999999997
29.200000000000045,0.0123939999999997
29.400000000000038,0.0105969999999999
29.600000000000023,0.0090849999999997
29.80000000000001,0.0045539999999999
30.0,0.0031169999999998
30.200000000000045,0.0035089999999997
30.400000000000038,0.0043819999999998
30.600000000000023,0.0048899999999998
30.80000000000001,0.0053859999999998
31.0,0.0053629999999997
31.200000000000045,0.0045039999999998
31.400000000000038,0.0046799999999997
31.600000000000023,0.0033579999999999
31.80000000000001,0.0027619999999999
32.0,0.0026579999999998
32.200000000000045,0.0044619999999999
32.400000000000034,0.0033849999999999
32.60000000000002,0.0031739999999997
32.80000000000001,0.0022179999999998
33.0,0.0039339999999998
33.200000000000045,0.0055249999999997
33.400000000000034,0.0091999999999998
33.60000000000002,0.0100649999999997
33.80000000000001,0.0103879999999998
34.0,0.0080489999999999
34.200000000000045,0.0036289999999998
34.400000000000034,-0.0004360000000001
34.60000000000002,-0.0024140000000001
34.80000000000001,-0.003519
35.0,-0.0051200000000002
35.200000000000045,-0.0042120000000001
35.400000000000034,-0.0021140000000001
35.60000000000002,-0.000628
35.80000000000001,-0.0006180000000002
36.0,-0.0013240000000001
36.200000000000045,-0.0024760000000001
36.400000000000034,-0.00306
36.60000000000002,-0.0006920000000001
36.80000000000001,0.0021769999999998
37.0,0.0054649999999998
37.200000000000045,0.0090449999999999
37.400000000000034,0.0111239999999999
37.60000000000002,0.0104869999999999
37.80000000000001,0.0082419999999998
38.0,0.0060299999999997
38.200000000000045,0.0025679999999999
38.400000000000034,-0.00093
38.60000000000002,-0.0016840000000002
38.80000000000001,0.0020199999999999
39.0,0.0043709999999999
39.200000000000045,0.0066449999999997
39.400000000000034,0.0052449999999999
39.60000000000002,0.0013919999999998
39.80000000000001,-0.0035880000000001
40.0,-0.0067100000000002
40.200000000000045,-0.0089570000000001
40.400000000000034,-0.006582
40.60000000000002,-0.002658
40.80000000000001,-0.0008100000000001
41.0,0.0002299999999999
41.200000000000045,0.0006169999999998
41.400000000000034,-0.000561
41.60000000000002,-0.0022380000000001
41.80000000000001,-0.0002510000000002
42.0,0.0024549999999998
42.200000000000045,0.0059439999999999
42.400000000000034,0.0069429999999999
42.60000000000002,0.0083359999999998
42.80000000000001,0.0047309999999998
43.0,0.0034919999999998
43.200000000000045,0.0026069999999998
43.400000000000034,0.0064569999999999
43.60000000000002,0.0095179999999999
43.80000000000001,0.0106289999999997
44.0,0.0091789999999998
44.200000000000045,0.0060149999999998
44.400000000000034,0.0012889999999998
44.60000000000002,-0.0030130000000001
44.80000000000001,-0.001565
45.0,0.0002769999999998
45.200000000000045,-0.0001390000000001
45.400000000000034,0.0001149999999998
45.60000000000002,0.0001449999999998
45.80000000000001,-0.0007050000000001
46.0,-0.003311
46.200000000000045,-0.0034210000000001
46.400000000000034,-0.0053830000000001
46.60000000000002,-0.007325
46.80000000000001,-0.0091620000000001
47.0,-0.0086020000000002
47.200000000000045,-0.007773
47.400000000000034,-0.0066130000000002
47.60000000000002,-0.005157
47.80000000000001,-0.0024220000000001
48.0,0.0007409999999998
48.200000000000045,0.0026279999999998
48.400000000000034,0.0031809999999998
48.60000000000002,0.0032189999999998
48.80000000000001,0.0018429999999998
49.0,-0.0011620000000001
49.200000000000045,-0.0023680000000001
49.400000000000034,-0.0027620000000001
49.60000000000002,-0.003638
49.80000000000001,-0.0043110000000001
50.0,-0.0035910000000001
50.200000000000045,-0.003084
50.400000000000034,-0.0017770000000001
50.60000000000002,-0.0016580000000001
50.80000000000001,-0.0012210000000001
51.0,0.0002849999999998
51.200000000000045,0.0050869999999998
51.400000000000034,0.0082599999999999
51.60000000000002,0.0106049999999999
51.80000000000001,0.0103809999999999
52.0,0.0078899999999999
52.200000000000045,0.0039289999999998
52.400000000000034,0.0023629999999998
52.60000000000002,0.0028399999999999
52.80000000000001,0.0038119999999999
53.0,0.0032759999999998
53.200000000000045,0.0005489999999999
53.400000000000034,-0.0013280000000002
53.60000000000002,-0.000941
53.80000000000001,-0.0006600000000001
54.0,0.0011709999999998
54.200000000000045,0.0028199999999998
54.400000000000034,0.0012179999999999
54.60000000000002,-0.0035070000000001
54.80000000000001,-0.004434
55.0,-0.004302
55.200000000000045,-0.004561
55.400000000000034,-0.0054860000000001
55.60000000000002,-0.0036870000000002
55.80000000000001,-0.0038470000000001
56.0,-0.002812
56.200000000000045,-0.0007050000000001
56.400000000000034,0.0029639999999999
56.60000000000002,0.0050339999999997
56.80000000000001,0.0081699999999997
57.0,0.0095519999999997
57.200000000000045,0.0083959999999998
57.400000000000034,0.0074789999999997
57.60000000000002,0.0059959999999998
57.80000000000001,0.0018889999999998
58.0,-0.0019630000000001
58.200000000000045,-0.0022380000000001
58.400000000000034,-0.0016120000000001
58.60000000000002,-0.000661
58.80000000000001,0.0017539999999998
59.0,0.0029849999999997
59.200000000000045,0.0040229999999998
59.400000000000034,0.0034809999999998
59.60000000000002,0.0034359999999997
59.80000000000001,0.0012409999999998
60.0,0.0009919999999998
60.200000000000045,-0.000652
60.400000000000034,-0.001365
60.60000000000002,-0.0016420000000001
60.80000000000001,-0.001816
61.0,-0.0031970000000001
61.200000000000045,-0.0036070000000001
61.400000000000034,-0.0018690000000001
61.60000000000002,-0.0013530000000001
61.80000000000007,-0.0005140000000001
62.0,-4.200000000009752e-05
62.200000000000045,0.0016699999999998
62.39999999999998,0.0014699999999998
62.60000000000002,0.0011729999999998
62.80000000000007,-0.0006480000000002
63.0,-0.003125
63.200000000000045,-0.00702
63.39999999999998,-0.0084540000000001
63.60000000000002,-0.0083010000000001
63.80000000000007,-0.0071720000000001
64.0,-0.0033980000000002
64.20000000000005,-0.0010590000000001
64.39999999999998,-0.0023540000000001
64.60000000000002,-0.002669
64.80000000000007,0.0008899999999998
65.0,0.0024009999999998
65.20000000000005,0.0036289999999998
65.39999999999998,0.0068299999999998
65.60000000000002,0.0076659999999999
65.80000000000007,0.0043659999999998
66.0,0.0013779999999998
66.20000000000005,-0.001535
66.39999999999998,-0.00574
66.60000000000002,-0.010215
66.80000000000007,-0.0112080000000001
67.0,-0.0098610000000001
67.20000000000005,-0.0070420000000002
67.39999999999998,-0.002105
67.60000000000002,0.0016809999999998
67.80000000000007,0.0032189999999998
68.0,0.0025329999999998
68.20000000000005,0.0003129999999997
68.39999999999998,-0.002509
68.60000000000002,-0.0035790000000002
68.80000000000007,-0.0028510000000001
69.0,-0.0009150000000002
69.20000000000005,0.0001039999999998
69.39999999999998,-0.0002050000000002
69.60000000000002,-5.400000000022054e-05
69.80000000000007,-0.0024710000000001
70.0,-0.0080280000000001
70.20000000000005,-0.010707
70.39999999999998,-0.0090580000000002
70.60000000000002,-0.0081550000000001
70.80000000000007,-0.0063540000000001
71.0,-0.0036010000000001
71.20000000000005,-0.000329
71.39999999999998,-0.0014100000000001
71.60000000000002,-0.0018690000000001
71.80000000000007,-0.0022430000000002
72.0,-0.0037580000000001
72.20000000000005,-0.0070120000000002
72.39999999999998,-0.009198
72.60000000000002,-0.0118520000000001
72.80000000000007,-0.013786
73.0,-0.0116470000000001
73.20000000000005,-0.008804
73.39999999999998,-0.0081520000000001
73.60000000000002,-0.0087140000000001
73.80000000000007,-0.0074100000000001
74.0,-0.0091810000000001
74.20000000000005,-0.0094440000000002
74.39999999999998,-0.0085330000000001
74.60000000000002,-0.006501
74.80000000000007,-0.006528
75.0,-0.0071200000000002
75.20000000000005,-0.010164
75.39999999999998,-0.0105830000000002
75.60000000000002,-0.009063
75.80000000000007,-0.0100300000000002
76.0,-0.0099420000000001
76.20000000000005,-0.0073480000000001
76.39999999999998,-0.0043630000000001
76.60000000000002,-0.003235
76.80000000000007,0.0005729999999999
77.0,0.0025769999999998
77.20000000000005,0.0017439999999999
77.39999999999998,-0.0008750000000001
77.60000000000002,-0.0024710000000001
77.80000000000007,-0.0034740000000001
78.0,-0.002183
78.20000000000005,0.0010529999999999
78.39999999999998,0.0021599999999999
78.60000000000002,0.0017649999999997
78.80000000000007,-6.4000000000064e-05
79.0,-0.0005180000000002
79.20000000000005,-0.003708
79.39999999999998,-0.0052940000000001
79.60000000000002,-0.0087600000000001
79.80000000000007,-0.0110880000000002
80.0,-0.0106060000000001
80.20000000000005,-0.0062590000000002
80.39999999999998,-0.0038200000000001
80.60000000000002,-0.0021510000000002
80.80000000000007,-0.0014710000000002
81.0,-0.005565
81.20000000000005,-0.0103140000000001
81.39999999999998,-0.0142860000000002
81.60000000000002,-0.0159200000000001
81.80000000000007,-0.016329
82.0,-0.0141300000000001
82.20000000000005,-0.0127680000000001
82.39999999999998,-0.0116500000000001
82.60000000000002,-0.0109570000000001
82.80000000000007,-0.0112040000000002
83.0,-0.01116
83.20000000000005,-0.0093800000000001
83.39999999999998,-0.00787
83.60000000000002,-0.005678
83.80000000000007,-0.002383
84.0,0.0001159999999997
84.20000000000005,2.4999999999941732e-05
84.39999999999998,0.0006969999999999
84.60000000000002,0.0014199999999999
84.80000000000007,-0.0008940000000001
85.0,-0.005349
85.20000000000005,-0.009176
85.39999999999998,-0.0102460000000002
85.60000000000002,-0.0091960000000002
85.80000000000007,-0.005257
86.0,-0.0012370000000001
86.20000000000005,0.0002769999999998
86.39999999999998,-0.0023050000000002
86.60000000000002,-0.0056370000000001
86.80000000000007,-0.008258
87.0,-0.0113990000000001
87.20000000000005,-0.0127530000000002
87.39999999999998,-0.013638
87.60000000000002,-0.013697
87.80000000000007,-0.0137280000000001
88.0,-0.0113580000000002
88.20000000000005,-0.0081410000000001
88.39999999999998,-0.004115
88.60000000000002,-0.0009160000000001
88.80000000000007,0.0005879999999998
89.0,0.0020989999999998
89.20000000000005,-0.000477
89.39999999999998,-0.003902
89.60000000000002,-0.0084970000000001
89.80000000000007,-0.011109
90.0,-0.012782
90.20000000000005,-0.0106870000000001
90.39999999999998,-0.0083520000000001
90.60000000000002,-0.00509
90.80000000000008,-0.0042890000000002
91.0,-0.0053560000000001
91.20000000000005,-0.007203
91.39999999999998,-0.0076960000000001
91.60000000000002,-0.0086220000000001
91.80000000000008,-0.008043
92.0,-0.008045
92.20000000000005,-0.0073100000000001
92.39999999999998,-0.0067300000000001
92.60000000000002,-0.0072740000000002
92.80000000000008,-0.0107320000000001
93.0,-0.014504
93.20000000000005,-0.0187780000000001
93.39999999999998,-0.022572
93.60000000000002,-0.023074
93.80000000000008,-0.02204
94.0,-0.021284
94.20000000000005,-0.0212670000000001
94.39999999999998,-0.0206060000000001
94.60000000000002,-0.0237950000000002
94.80000000000008,-0.0236580000000001
95.0,-0.0236480000000001
95.20000000000005,-0.021152
95.39999999999998,-0.020936
95.60000000000002,-0.018569
95.80000000000008,-0.019395
96.0,-0.0169780000000001
96.20000000000005,-0.0136200000000001
96.39999999999998,-0.0091690000000002
96.60000000000002,-0.005632
96.80000000000008,-0.0032360000000002
97.0,-0.0037550000000001
97.20000000000005,-0.004812
97.39999999999998,-0.0045400000000002
97.60000000000002,-0.0026830000000002
97.80000000000008,-0.004412
98.0,-0.0053820000000002
98.20000000000005,-0.0068190000000001
98.39999999999998,-0.0102780000000002
98.60000000000002,-0.0147370000000002
98.80000000000008,-0.0142860000000002
99.0,-0.0125890000000001
99.20000000000005,-0.0106490000000001
99.39999999999998,-0.0077740000000001
99.60000000000002,-0.005603
99.80000000000008,-0.004825
100.0,-0.005592
100.20000000000005,-0.0074640000000001
100.39999999999998,-0.0101770000000001
100.60000000000002,-0.013344
100.80000000000008,-0.014752
101.0,-0.014196
101.20000000000005,-0.0122320000000002
101.39999999999998,-0.0099760000000002
101.60000000000002,-0.0074420000000001
101.80000000000008,-0.006995
102.0,-0.007433
102.20000000000005,-0.0105440000000001
102.39999999999998,-0.014806
102.60000000000002,-0.016377
102.80000000000008,-0.01608
103.0,-0.0171460000000001
103.20000000000005,-0.0163000000000002
103.39999999999998,-0.0148460000000001
103.60000000000002,-0.015203
103.80000000000008,-0.016774
104.0,-0.0166160000000001
104.20000000000005,-0.0164140000000001
104.39999999999998,-0.0118220000000002
104.60000000000002,-0.009047
104.80000000000008,-0.0040300000000002
105.0,-0.0022970000000002
105.20000000000005,-0.001516
105.39999999999998,-0.0051930000000002
105.60000000000002,-0.006607
105.80000000000008,-0.0071540000000001
106.0,-0.0042790000000001
106.20000000000005,-0.0023050000000002
106.39999999999998,0.0002889999999997
106.60000000000002,0.0033929999999997
106.80000000000008,0.0050639999999999
107.0,0.0026839999999999
107.20000000000005,0.0006929999999998
107.39999999999998,-0.0019470000000001
107.60000000000002,-0.0086990000000002
107.80000000000008,-0.0168450000000002
108.0,-0.0210560000000001
108.20000000000005,-0.022407
108.39999999999998,-0.0227620000000001
108.60000000000002,-0.0203900000000001
108.80000000000008,-0.018415
109.0,-0.017616
109.20000000000005,-0.0189880000000002
109.39999999999998,-0.0192970000000001
109.60000000000002,-0.018313
109.80000000000008,-0.0182240000000002
110.0,-0.0165430000000001
110.20000000000005,-0.0164730000000001
110.39999999999998,-0.012941
110.60000000000002,-0.0110960000000002
110.80000000000008,-0.005489
111.0,-0.003095
111.20000000000005,0.0011279999999997
111.39999999999998,0.0020509999999998
111.60000000000002,0.0028849999999998
111.80000000000008,0.0008339999999997
112.0,-0.000388
112.20000000000005,-0.0013260000000001
112.39999999999998,-0.002437
112.60000000000002,-0.0050660000000002
112.80000000000008,-0.0056610000000001
113.0,-0.0052620000000001
113.20000000000005,-0.0049720000000001
113.39999999999998,-0.008677
113.60000000000002,-0.0075480000000001
113.80000000000008,-0.0052630000000002
114.0,-0.0019220000000002
114.20000000000005,-0.0014900000000002
114.39999999999998,-0.001859
114.60000000000002,-0.0034990000000001
114.80000000000008,-0.007821
115.0,-0.013473
115.20000000000005,-0.017549
115.39999999999998,-0.0178520000000002
115.60000000000002,-0.016825
115.80000000000008,-0.015856
116.0,-0.0157470000000001
116.20000000000005,-0.0149860000000001
116.39999999999998,-0.013924
116.60000000000002,-0.0144620000000001
116.80000000000008,-0.014734
117.0,-0.0153550000000002
117.20000000000005,-0.013667
117.39999999999998,-0.009754
117.60000000000002,-0.009006
117.80000000000008,-0.0095690000000001
118.0,-0.0091810000000001
118.20000000000005,-0.010555
118.39999999999998,-0.014553
118.60000000000002,-0.017044
118.80000000000008,-0.0163510000000002
119.0,-0.017446
119.20000000000005,-0.0172400000000001
119.39999999999998,-0.0163760000000001
119.60000000000002,-0.0125300000000001
119.80000000000008,-0.011913
120.0,-0.0097870000000002
120.20000000000005,-0.009187
120.39999999999998,-0.00845
120.60000000000002,-0.009751
120.80000000000008,-0.012426
121.0,-0.01506
121.20000000000005,-0.0161430000000002
121.39999999999998,-0.016504
121.60000000000002,-0.01973
121.80000000000008,-0.0179920000000002
122.0,-0.016153
122.20000000000005,-0.0154
122.39999999999998,-0.0168240000000001
122.60000000000002,-0.015009
122.80000000000008,-0.0157560000000001
123.0,-0.0157
123.20000000000005,-0.014026
123.39999999999998,-0.010488
123.60000000000002,-0.0081740000000001
123.80000000000008,-0.0052070000000001
124.0,-0.003335
124.20000000000005,-0.0024090000000001
124.39999999999998,-0.003673
124.60000000000002,-0.0039600000000001
124.80000000000008,-0.0045480000000002
125.0,-0.0039500000000001
125.20000000000005,-0.005673
125.39999999999998,-0.0053100000000001
125.60000000000002,-0.0051930000000002
125.80000000000008,-0.0053780000000001
126.0,-0.006264
126.20000000000005,-0.0069290000000001
126.39999999999998,-0.007738
126.60000000000002,-0.0084560000000002
126.80000000000008,-0.0081510000000002
127.0,-0.0091510000000001
127.20000000000005,-0.0077410000000002
127.39999999999998,-0.005991
127.60000000000002,-0.005373
127.80000000000008,-0.0068590000000001
128.0,-0.006553
128.20000000000005,-0.0070320000000001
128.39999999999998,-0.0068670000000001
128.60000000000002,-0.007943
128.80000000000007,-0.0085160000000001
129.0,-0.0062090000000001
129.20000000000005,-0.0041760000000001
129.39999999999998,-0.0054050000000001
129.60000000000002,-0.004474
129.80000000000007,-0.0009620000000001
130.0,-0.0007570000000001
130.20000000000005,-0.0029720000000001
130.39999999999998,-0.004639
130.60000000000002,-0.0065730000000001
130.80000000000007,-0.0114860000000001
131.0,-0.0154310000000001
131.20000000000005,-0.0180420000000001
131.39999999999998,-0.019881
131.60000000000002,-0.020831
131.80000000000007,-0.0210100000000001
132.0,-0.023522
132.20000000000005,-0.0248350000000001
132.39999999999998,-0.0241870000000001
132.60000000000002,-0.024518
132.80000000000007,-0.0229880000000002
133.0,-0.018342
133.20000000000005,-0.0166640000000002
133.39999999999998,-0.0146980000000001
133.60000000000002,-0.011781
133.80000000000007,-0.0107240000000001
134.0,-0.010126
134.20000000000005,-0.0066130000000002
134.39999999999998,-0.0039730000000002
134.60000000000002,-0.004272
134.80000000000007,-0.0036040000000001
135.0,-0.0041350000000002
135.20000000000005,-0.005203
135.39999999999998,-0.007033
135.60000000000002,-0.0091530000000001
135.80000000000007,-0.010985
136.0,-0.011365
136.20000000000005,-0.0114120000000002
136.39999999999998,-0.011962
136.60000000000002,-0.010933
136.80000000000007,-0.011381
137.0,-0.013233
137.20000000000005,-0.0141980000000001
137.39999999999998,-0.0155710000000002
137.60000000000002,-0.0161770000000001
137.80000000000007,-0.0160650000000002
138.0,-0.014725
138.20000000000005,-0.014771
138.39999999999998,-0.0141770000000001
138.60000000000002,-0.0140930000000001
138.80000000000007,-0.0117550000000001
139.0,-0.0102110000000001
139.20000000000005,-0.008725
139.39999999999998,-0.0081890000000002
139.60000000000002,-0.006763
139.80000000000007,-0.0081470000000001
140.0,-0.011435
140.20000000000005,-0.0137090000000001
140.39999999999998,-0.0139920000000002
140.60000000000002,-0.0143080000000002
140.80000000000007,-0.012715
141.0,-0.0105080000000001
141.20000000000005,-0.008469
141.39999999999998,-0.0092890000000001
141.60000000000002,-0.0098030000000002
141.80000000000007,-0.0104330000000001
142.0,-0.0107430000000001
142.20000000000005,-0.0108880000000002
142.39999999999998,-0.010342
142.60000000000002,-0.011554
142.80000000000007,-0.0158500000000001
143.0,-0.0193010000000002
143.20000000000005,-0.0225590000000002
143.39999999999998,-0.022952
143.60000000000002,-0.0196800000000001
143.80000000000007,-0.013327
144.0,-0.0096210000000001
144.20000000000005,-0.0068030000000001
144.39999999999998,-0.0051660000000002
144.60000000000002,-0.007298
144.80000000000007,-0.0092310000000002
145.0,-0.0088800000000002
145.20000000000005,-0.0097140000000002
145.39999999999998,-0.009786
145.60000000000002,-0.0096040000000001
145.80000000000007,-0.012531
146.0,-0.016777
146.20000000000005,-0.0191610000000002
146.39999999999998,-0.0215820000000002
146.60000000000002,-0.0216790000000002
146.80000000000007,-0.0186380000000001
147.0,-0.0137420000000001
147.20000000000005,-0.010561
147.39999999999998,-0.0099330000000001
147.60000000000002,-0.0088920000000001
147.80000000000007,-0.0078170000000001
148.0,-0.007106
148.20000000000005,-0.0065730000000001
148.39999999999998,-0.0086140000000001
148.60000000000002,-0.0120410000000001
148.80000000000007,-0.01513
149.0,-0.0192240000000001
149.20000000000005,-0.022485
149.39999999999998,-0.0212690000000002
149.60000000000002,-0.019605
149.80000000000007,-0.0185650000000001
150.0,-0.018917
150.20000000000005,-0.0177310000000001
150.39999999999998,-0.0175290000000001
150.60000000000002,-0.0156340000000001
150.80000000000007,-0.0146860000000001
151.0,-0.0112800000000001
151.20000000000005,-0.0117530000000001
151.39999999999998,-0.0136360000000002
151.60000000000002,-0.018669
151.80000000000007,-0.023117
152.0,-0.0287840000000001
152.20000000000005,-0.025865
152.39999999999998,-0.022064
152.60000000000002,-0.0162300000000001
152.80000000000007,-0.01133
153.0,-0.003883
153.20000000000005,-0.0020680000000001
153.39999999999998,-0.000447
153.60000000000002,-0.000269
153.80000000000007,0.0012639999999999
154.0,0.0012359999999997
154.20000000000005,-0.001289
154.39999999999998,-0.0045290000000002
154.60000000000002,-0.0085750000000002
154.80000000000007,-0.0139820000000001
155.0,-0.019041
155.20000000000005,-0.0194400000000001
155.39999999999998,-0.0188540000000001
155.60000000000002,-0.0175130000000001
155.80000000000007,-0.0152670000000001
156.0,-0.0152240000000001
156.20000000000005,-0.01563
156.39999999999998,-0.015802
156.60000000000002,-0.01652
156.80000000000007,-0.0183900000000001
157.0,-0.0176960000000001
157.20000000000005,-0.0186250000000001
157.39999999999998,-0.0198610000000001
157.60000000000002,-0.0168880000000002
157.80000000000007,-0.013751
158.0,-0.0114790000000002
158.20000000000005,-0.011098
158.39999999999998,-0.008634
158.60000000000002,-0.0092
158.80000000000007,-0.0105970000000001
159.0,-0.0130260000000002
159.20000000000005,-0.0146480000000002
159.39999999999998,-0.0173960000000001
159.60000000000002,-0.0181890000000002
159.80000000000007,-0.0157800000000001
160.0,-0.0139390000000001
160.20000000000005,-0.0122200000000001
160.39999999999998,-0.013462
160.60000000000002,-0.015514
160.80000000000007,-0.0176710000000002
161.0,-0.016739
161.20000000000005,-0.0176290000000001
161.39999999999998,-0.0119390000000001
161.60000000000002,-0.0074310000000001
161.80000000000007,-0.0062300000000001
162.0,-0.006833
162.20000000000005,-0.0044730000000001
162.39999999999998,-0.0064080000000001
162.60000000000002,-0.0108560000000001
162.80000000000007,-0.01313
163.0,-0.0123820000000001
163.20000000000005,-0.0127490000000001
163.39999999999998,-0.012186
163.60000000000002,-0.009489
163.80000000000007,-0.0089290000000001
164.0,-0.012626
164.20000000000005,-0.0165810000000001
164.39999999999998,-0.0203140000000001
164.60000000000002,-0.024048
164.80000000000007,-0.0233120000000002
165.0,-0.02312
165.20000000000005,-0.0218140000000002
165.39999999999998,-0.019797
165.60000000000002,-0.0158470000000001
165.80000000000007,-0.01506
166.0,-0.0131340000000002
166.20000000000005,-0.011535
166.39999999999998,-0.0102870000000001
166.60000000000002,-0.0111160000000001
166.80000000000007,-0.0110020000000001
167.0,-0.009862
167.20000000000005,-0.010464
167.39999999999998,-0.0135960000000001
167.60000000000002,-0.0168800000000002
167.80000000000007,-0.0183200000000001
168.0,-0.019616
168.20000000000005,-0.0196990000000001
168.39999999999998,-0.0204760000000001
168.60000000000002,-0.021959
168.80000000000007,-0.0241820000000001
169.0,-0.0243430000000002
169.20000000000005,-0.0211240000000001
169.39999999999998,-0.014947
169.60000000000002,-0.0089340000000002
169.80000000000007,-0.0067190000000001
170.0,-0.0088760000000001
170.20000000000005,-0.0136370000000001
170.39999999999998,-0.0167210000000002
170.60000000000002,-0.0173990000000001
170.80000000000007,-0.015036
171.0,-0.0127700000000001
171.20000000000005,-0.0118250000000001
171.39999999999998,-0.0110130000000001
171.60000000000002,-0.0121650000000002
171.80000000000007,-0.0138100000000001
172.0,-0.0140120000000001
172.20000000000005,-0.0139340000000001
172.39999999999998,-0.0158660000000001
172.60000000000002,-0.016968
172.80000000000007,-0.0182110000000002
173.0,-0.018245
173.20000000000005,-0.015287
173.39999999999998,-0.0130770000000002
173.60000000000002,-0.012043
173.80000000000007,-0.0132560000000001
174.0,-0.0152540000000001
174.20000000000005,-0.0174750000000001
174.39999999999998,-0.0199460000000002
174.60000000000002,-0.0203490000000001
174.80000000000007,-0.0176180000000001
175.0,-0.0150270000000001
175.20000000000005,-0.0140960000000001
175.39999999999998,-0.0124410000000001
175.60000000000002,-0.0125190000000001
175.80000000000007,-0.0148300000000001
176.0,-0.0158490000000002
176.20000000000005,-0.015279
176.39999999999998,-0.0174590000000001
176.60000000000002,-0.0172660000000002
176.80000000000007,-0.016539
177.0,-0.0165160000000001
177.20000000000005,-0.019182
177.39999999999998,-0.0194990000000001
177.60000000000002,-0.0194640000000001
177.80000000000007,-0.018437
178.0,-0.0178360000000001
178.20000000000005,-0.0174240000000001
178.39999999999998,-0.014358
178.60000000000002,-0.0119250000000001
178.80000000000007,-0.011962
179.0,-0.011692
179.20000000000005,-0.011155
179.39999999999998,-0.0124380000000001
179.60000000000002,-0.016126
179.80000000000007,-0.0171590000000001
180.0,-0.0179200000000001
180.20000000000005,-0.015535
180.4,-0.013184
180.6,-0.0102900000000001
180.80000000000007,-0.008458
181.0,-0.0078740000000001
181.20000000000005,-0.0081730000000002
181.4,-0.008801
181.6,-0.0093880000000001
181.80000000000007,-0.009492
182.0,-0.0097690000000001
182.20000000000005,-0.012623
182.4,-0.0153050000000001
182.6,-0.016353
182.80000000000007,-0.0157260000000001
183.0,-0.012447
183.20000000000005,-0.0070110000000001
183.4,-0.0037450000000001
183.6,-0.002169
183.80000000000007,-0.0027430000000001
184.0,-0.0050670000000001
184.20000000000005,-0.0099360000000001
184.4,-0.011905
184.6,-0.0112670000000001
184.80000000000007,-0.0114280000000002
185.0,-0.0108720000000002
185.20000000000005,-0.0089290000000001
185.4,-0.0079250000000001
185.6,-0.0104780000000002
185.80000000000007,-0.016059
186.0,-0.0224470000000001
186.20000000000005,-0.028388
186.4,-0.03163
186.6,-0.0326290000000002
186.80000000000007,-0.0266060000000001
187.0,-0.019743
187.20000000000005,-0.0104750000000002
187.4,-0.0040330000000001
187.6,-0.001527
187.80000000000007,-0.003864
188.0,-0.0074260000000001
188.20000000000005,-0.0115280000000002
188.4,-0.0185970000000001
188.6,-0.023503
188.80000000000007,-0.026677
189.0,-0.027095
189.20000000000005,-0.0290960000000002
189.4,-0.0237480000000001
189.6,-0.0161790000000001
189.80000000000007,-0.0090370000000001
190.0,-0.0075830000000001
190.20000000000005,-0.0062600000000001
190.4,-0.0089580000000002
190.6,-0.0128180000000002
190.80000000000007,-0.0146350000000001
191.0,-0.0108270000000001
191.20000000000005,-0.0065760000000001
191.4,-0.002625
191.6,-0.0012290000000001
191.80000000000007,-0.0017870000000002
192.0,-0.0059250000000001
192.20000000000005,-0.0104670000000002
192.4,-0.015832
192.6,-0.016742
192.80000000000007,-0.0175210000000001
193.0,-0.016464
193.20000000000005,-0.0164870000000001
193.4,-0.0135100000000001
193.6,-0.013184
193.80000000000007,-0.0136870000000002
194.0,-0.014812
194.20000000000005,-0.0137720000000001
194.4,-0.0145910000000002
194.6,-0.0151560000000001
194.80000000000007,-0.014979
195.0,-0.0153230000000001
195.20000000000005,-0.0170080000000001
195.4,-0.0203030000000001
195.6,-0.0246320000000002
195.80000000000007,-0.0262300000000001
196.0,-0.0236420000000001
196.20000000000005,-0.02031
196.4,-0.0190720000000002
196.6,-0.0154610000000001
196.80000000000007,-0.0113970000000001
197.0,-0.0092640000000001
197.20000000000005,-0.009252
197.4,-0.0066990000000002
197.6,-0.006121
197.80000000000007,-0.010663
198.0,-0.0170650000000001
198.20000000000005,-0.0215850000000001
198.4,-0.0248450000000002
198.6,-0.026472
198.80000000000007,-0.0250000000000001
199.0,-0.0206430000000001
199.20000000000005,-0.0172040000000002
199.4,-0.0155070000000001
199.6,-0.013716
199.80000000000007,-0.01384
200.0,-0.014995
200.20000000000005,-0.017279
200.4,-0.014288
200.6,-0.0140950000000001
200.80000000000007,-0.011824
201.0,-0.013333
201.20000000000005,-0.0113770000000001
201.4,-0.0122550000000001
201.6,-0.010547
201.80000000000007,-0.0110960000000002
202.0,-0.0076450000000001
202.20000000000005,-0.005967
202.4,-0.006744
202.6,-0.0096820000000001
202.80000000000007,-0.0088510000000001
203.0,-0.009765
203.20000000000005,-0.011365
203.4,-0.0119580000000001
203.6,-0.0100870000000001
203.80000000000007,-0.0110620000000001
204.0,-0.0105760000000001
204.20000000000005,-0.009767
204.4,-0.008879
204.6,-0.010145
204.80000000000007,-0.0105380000000001
205.0,-0.0131230000000002
205.20000000000005,-0.0154670000000001
205.4,-0.018909
205.6,-0.020982
205.80000000000007,-0.0234500000000001
206.0,-0.0230650000000001
206.20000000000005,-0.0222500000000001
206.4,-0.0197370000000001
206.6,-0.017222
206.80000000000007,-0.0148940000000001
207.0,-0.013651
207.20000000000005,-0.014626
207.4,-0.0185400000000002
207.6,-0.0229680000000001
207.80000000000007,-0.023935
208.0,-0.0217290000000001
208.20000000000005,-0.0162250000000001
208.4,-0.0095660000000001
208.6,-0.0047750000000001
208.80000000000007,-0.0012240000000001
209.0,-0.0002900000000001
209.20000000000005,-0.0019600000000001
209.4,-0.0036410000000002
209.6,-0.002971
209.80000000000007,-0.0036990000000001
210.0,-0.0050370000000001
210.20000000000005,-0.0071580000000002
210.4,-0.007773
210.6,-0.0084750000000002
210.80000000000007,-0.011155
211.0,-0.0157530000000001
211.20000000000005,-0.016075
211.4,-0.0167430000000001
211.6,-0.016628
211.80000000000007,-0.0159310000000001
212.0,-0.0139030000000002
212.20000000000005,-0.0129490000000001
212.4,-0.0133050000000001
212.6,-0.014731
212.80000000000007,-0.014879
213.0,-0.0147350000000001
213.20000000000005,-0.0151180000000001
213.4,-0.014253
213.6,-0.015314
213.80000000000007,-0.0168110000000001
214.0,-0.0185570000000001
214.20000000000005,-0.0198390000000001
214.4,-0.0236480000000001
214.6,-0.0243350000000002
214.80000000000007,-0.024828
215.0,-0.0242840000000001
215.20000000000005,-0.024642
215.4,-0.0236850000000001
215.6,-0.019913
215.80000000000007,-0.017573
216.0,-0.0176520000000002
216.20000000000005,-0.020016
216.4,-0.021365
216.6,-0.0264540000000002
216.80000000000007,-0.027657
217.0,-0.026067
217.20000000000005,-0.0228400000000001
217.4,-0.020453
217.6,-0.0155150000000001
217.80000000000007,-0.0149210000000001
218.0,-0.0160270000000002
218.20000000000005,-0.0163810000000002
218.4,-0.0150450000000001
218.6,-0.015006
218.80000000000007,-0.012647
219.0,-0.0107750000000002
219.20000000000005,-0.0078250000000001
219.4,-0.007905
219.6,-0.010879
219.80000000000007,-0.01543
220.0,-0.0183550000000001
220.20000000000005,-0.020558
220.4,-0.0212930000000002
220.6,-0.019643
220.80000000000007,-0.0172690000000002
221.0,-0.0150400000000001
221.20000000000005,-0.01821
221.4,-0.0198980000000001
221.6,-0.02129
221.80000000000007,-0.021916
222.0,-0.022715
222.20000000000005,-0.020669
222.4,-0.0189460000000001
222.6,-0.0193200000000002
222.80000000000007,-0.019711
223.0,-0.0187830000000002
223.20000000000005,-0.019576
223.4,-0.0202190000000002
223.6,-0.020159
223.80000000000007,-0.0219980000000001
224.0,-0.0233530000000001
224.20000000000005,-0.0213160000000001
224.4,-0.0194510000000001
224.6,-0.0182970000000002
224.80000000000007,-0.0160500000000001
225.0,-0.0160030000000002
225.20000000000005,-0.0171450000000001
225.4,-0.017848
225.6,-0.0175910000000001
225.80000000000007,-0.015573
226.0,-0.0145480000000002
226.20000000000005,-0.0157250000000002
226.4,-0.018458
226.6,-0.020526
226.80000000000007,-0.0217790000000002
227.0,-0.0207700000000001
227.20000000000005,-0.020512
227.4,-0.0194930000000002
227.6,-0.0211610000000002
227.80000000000007,-0.024531
228.0,-0.026966
228.20000000000005,-0.025854
228.4,-0.0253500000000002
228.6,-0.0240530000000001
228.80000000000007,-0.0214320000000001
229.0,-0.020194
229.20000000000005,-0.018232
229.4,-0.0131430000000001
229.6,-0.0082810000000002
229.80000000000007,-0.007014
230.0,-0.0092390000000002
230.20000000000005,-0.0113630000000002
230.4,-0.0166000000000001
230.6,-0.0184430000000002
230.80000000000007,-0.0193400000000001
231.0,-0.01753
231.20000000000005,-0.0173200000000002
231.4,-0.015578
231.6,-0.0168140000000001
231.80000000000007,-0.016569
232.0,-0.0158770000000001
232.20000000000005,-0.0147100000000002
232.4,-0.0147220000000001
232.6,-0.0143430000000002
232.80000000000007,-0.013856
233.0,-0.0146300000000001
233.20000000000005,-0.016574
233.4,-0.0200270000000002
233.6,-0.023249
233.80000000000007,-0.0268080000000001
234.0,-0.027479
234.20000000000005,-0.0278840000000002
234.4,-0.02648
234.6,-0.0233020000000001
234.80000000000007,-0.0203600000000001
235.0,-0.0176850000000001
235.20000000000005,-0.0153130000000001
235.4,-0.0117100000000001
235.6,-0.013705
235.80000000000007,-0.0167620000000001
236.0,-0.0217150000000001
236.20000000000005,-0.0262660000000001
236.4,-0.0276400000000001
236.6,-0.0222820000000001
236.80000000000007,-0.0158770000000001
237.0,-0.0102220000000001
237.20000000000005,-0.0076120000000001
237.4,-0.0075750000000001
237.6,-0.0089830000000001
237.80000000000007,-0.0113100000000001
238.0,-0.015975
238.20000000000005,-0.0196180000000001
238.4,-0.0221760000000001
238.6,-0.023997
238.80000000000007,-0.0239630000000001
239.0,-0.023411
239.20000000000005,-0.020798
239.4,-0.0214390000000002
239.6,-0.024113
239.80000000000007,-0.025767
240.0,-0.0262010000000001
240.20000000000005,-0.0253850000000002
240.4,-0.025651
240.6,-0.0262300000000001
240.80000000000007,-0.0276100000000001
241.0,-0.026164
241.20000000000005,-0.0237990000000001
241.4,-0.0225700000000002
241.6,-0.018701
241.80000000000007,-0.0173210000000001
242.0,-0.0164860000000002
242.20000000000005,-0.016906
242.4,-0.0132430000000001
242.6,-0.0130780000000001
242.80000000000007,-0.0115520000000002
243.0,-0.0120310000000001
243.20000000000005,-0.0127460000000001
243.4,-0.014609
243.6,-0.0140140000000001
243.80000000000007,-0.014151
244.0,-0.0165400000000002
244.20000000000005,-0.0185060000000001
244.4,-0.01936
244.6,-0.0199790000000001
244.80000000000007,-0.0196260000000001
245.0,-0.0158680000000002
245.20000000000005,-0.0110930000000002
245.4,-0.0068430000000001
245.6,-0.006561
245.80000000000007,-0.0074020000000001
246.0,-0.0093550000000002
246.20000000000005,-0.0121650000000002
246.4,-0.0188950000000001
246.6,-0.0221960000000001
246.80000000000007,-0.023468
247.0,-0.020547
247.20000000000005,-0.019503
247.4,-0.0164510000000002
247.6,-0.0142710000000001
247.80000000000007,-0.013044
248.0,-0.0153260000000001
248.20000000000005,-0.0181890000000002
248.4,-0.021006
248.6,-0.022215
248.80000000000007,-0.0251110000000001
249.0,-0.0257560000000001
249.20000000000005,-0.0219600000000002
249.4,-0.0173500000000002
249.6,-0.016936
249.80000000000007,-0.01668
250.0,-0.0177440000000002
250.20000000000005,-0.0224250000000001
250.4,-0.0262730000000002
250.6,-0.026898
250.80000000000007,-0.0253180000000001
251.0,-0.022761
251.20000000000005,-0.0195020000000001
251.4,-0.0166490000000001
251.6,-0.0149080000000001
251.80000000000007,-0.013694
252.0,-0.013873
252.20000000000005,-0.0137530000000001
252.4,-0.0128000000000001
252.6,-0.0119380000000002
252.80000000000007,-0.012534
253.0,-0.0155990000000001
253.20000000000005,-0.0186410000000001
253.4,-0.0236290000000001
253.6,-0.0248940000000001
253.80000000000007,-0.0247350000000001
254.0,-0.0218300000000002
254.20000000000005,-0.020661
254.4,-0.0175670000000001
254.6,-0.015214
254.80000000000007,-0.0122540000000002
255.0,-0.0136520000000002
255.20000000000005,-0.0169020000000001
255.4,-0.0197800000000001
255.6,-0.022777
255.80000000000007,-0.0264900000000001
256.0,-0.0261520000000001
256.20000000000005,-0.0229140000000001
256.4,-0.0218840000000002
256.6,-0.0200870000000001
256.80000000000007,-0.018645
257.0,-0.018132
257.20000000000005,-0.01658
257.4,-0.0140190000000002
257.6,-0.0136710000000002
257.80000000000007,-0.0160890000000002
258.0,-0.0175260000000001
258.20000000000005,-0.020018
258.4,-0.022159
258.6,-0.0261520000000001
258.80000000000007,-0.025673
259.0,-0.025654
259.20000000000005,-0.0256960000000001
259.4,-0.0240960000000001
259.6,-0.020971
259.80000000000007,-0.017754
260.0,-0.014661
260.20000000000005,-0.0099310000000001
260.4,-0.0101230000000001
260.6,-0.0112590000000001
260.80000000000007,-0.015743
261.0,-0.019635
261.20000000000005,-0.0242280000000001
261.4,-0.0234720000000001
261.6,-0.0206730000000001
261.80000000000007,-0.0167430000000001
262.0,-0.014574
262.20000000000005,-0.0145380000000001
262.4,-0.015371
262.6,-0.016531
262.80000000000007,-0.0165090000000001
263.0,-0.015921
263.20000000000005,-0.014731
263.4,-0.014105
263.6,-0.013797
263.80000000000007,-0.0136370000000001
264.0,-0.0135580000000001
264.20000000000005,-0.012528
264.4,-0.0139930000000001
264.6,-0.0176530000000001
264.80000000000007,-0.0216410000000002
265.0,-0.0250570000000001
265.20000000000005,-0.0275860000000001
265.4,-0.027182
265.6,-0.0247430000000001
265.80000000000007,-0.0217260000000001
266.0,-0.0184090000000001
266.20000000000005,-0.0144970000000002
266.4,-0.0100410000000001
266.6,-0.0076740000000001
266.80000000000007,-0.0072430000000001
267.0,-0.007854
267.20000000000005,-0.0086270000000001
267.4,-0.011805
267.6,-0.0147840000000001
267.80000000000007,-0.016075
268.0,-0.017238
268.20000000000005,-0.0192540000000001
268.4,-0.0217220000000002
268.6,-0.020604
268.80000000000007,-0.018164
269.0,-0.0173500000000002
269.20000000000005,-0.0166760000000001
269.4,-0.0170310000000002
269.6,-0.0199660000000001
269.80000000000007,-0.0243970000000002
270.0,-0.0256010000000002
270.20000000000005,-0.0278250000000002
270.4,-0.027098
270.6,-0.0246350000000001
270.80000000000007,-0.0211450000000001
271.0,-0.0190240000000001
271.20000000000005,-0.016161
271.4,-0.0159310000000001
271.6,-0.0149960000000002
271.80000000000007,-0.0169610000000002
272.0,-0.0183790000000001
272.20000000000005,-0.020439
272.4,-0.0189290000000001
272.6,-0.0171890000000001
272.80000000000007,-0.0135800000000001
273.0,-0.011956
273.20000000000005,-0.0119440000000001
273.4,-0.0159980000000001
273.6,-0.0224030000000001
273.80000000000007,-0.0276600000000002
274.0,-0.0287560000000002
274.20000000000005,-0.029241
274.4,-0.0270240000000001
274.6,-0.0226970000000001
274.80000000000007,-0.0209460000000001
275.0,-0.020385
275.20000000000005,-0.0178110000000002
275.4,-0.0140600000000001
275.6,-0.0113910000000001
275.80000000000007,-0.0105080000000001
276.0,-0.0129270000000001
276.20000000000005,-0.015622
276.4,-0.0184680000000001
276.6,-0.0228910000000002
276.80000000000007,-0.025055
277.0,-0.0257630000000002
277.20000000000005,-0.0262030000000002
277.4,-0.024334
277.6,-0.0212260000000001
277.80000000000007,-0.017066
278.0,-0.0144750000000002
278.20000000000005,-0.0125290000000002
278.4,-0.0168830000000002
278.6,-0.0214310000000002
278.80000000000007,-0.0276720000000001
279.0,-0.0313180000000001
279.20000000000005,-0.032278
279.4,-0.0292910000000001
279.6,-0.0275750000000001
279.80000000000007,-0.0248760000000001
280.0,-0.0219610000000001
280.20000000000005,-0.019562
280.4,-0.0167970000000001
280.6,-0.0123870000000001
280.80000000000007,-0.0094820000000002
281.0,-0.007905
281.20000000000005,-0.009057
281.4,-0.011109
281.6,-0.0141840000000001
281.80000000000007,-0.014769
282.0,-0.015508
282.20000000000005,-0.0169640000000002
282.4,-0.0194390000000002
282.6,-0.020008
282.80000000000007,-0.021659
283.0,-0.022102
283.20000000000005,-0.019136
283.4,-0.0161790000000001
283.6,-0.0159470000000001
283.80000000000007,-0.016437
284.0,-0.0170050000000001
284.20000000000005,-0.0184980000000001
284.4,-0.0207910000000002
284.6,-0.021198
284.80000000000007,-0.0196670000000001
285.0,-0.0167030000000001
285.20000000000005,-0.0157800000000001
285.4,-0.0164250000000001
285.6,-0.0178770000000001
285.80000000000007,-0.019854
286.0,-0.022642
286.20000000000005,-0.022879
286.4,-0.0213690000000001
286.6,-0.017827
286.80000000000007,-0.018499
287.0,-0.0199990000000001
287.20000000000005,-0.0229590000000001
287.4,-0.0230070000000002
287.6,-0.0264060000000001
287.80000000000007,-0.027673
288.0,-0.027703
288.20000000000005,-0.026013
288.4,-0.0264510000000002
288.6,-0.025284
288.80000000000007,-0.0230030000000001
289.0,-0.0212990000000001
289.20000000000005,-0.0211800000000002
289.4,-0.0232040000000002
289.6,-0.025705
289.80000000000007,-0.0258580000000001
290.0,-0.024566
290.20000000000005,-0.0224120000000001
290.4,-0.0186940000000002
290.6,-0.01621
290.80000000000007,-0.0159380000000002
291.0,-0.0177870000000002
291.20000000000005,-0.0189240000000001
291.4,-0.0214930000000002
291.6,-0.0206360000000001
291.80000000000007,-0.0196330000000002
292.0,-0.018968
292.20000000000005,-0.0191450000000001
292.4,-0.0170860000000001
292.6,-0.016774
292.80000000000007,-0.0162660000000001
293.0,-0.0154830000000001
293.20000000000005,-0.0172160000000001
293.4,-0.0181140000000001
293.6,-0.019767
293.80000000000007,-0.02096
294.0,-0.024653
294.20000000000005,-0.0288780000000001
294.4,-0.0322630000000001
294.6,-0.0318150000000001
294.80000000000007,-0.0287480000000002
295.0,-0.025168
295.20000000000005,-0.018472
295.4,-0.012609
295.6,-0.012761
295.80000000000007,-0.0158230000000001
296.0,-0.015748
296.20000000000005,-0.0174580000000001
296.4,-0.0184460000000001
296.6,-0.0169970000000001
296.80000000000007,-0.0171460000000001
297.0,-0.020191
297.20000000000005,-0.024294
297.4,-0.03095
297.6,-0.035557
297.80000000000007,-0.034996
298.0,-0.0324580000000001
298.20000000000005,-0.0283080000000002
298.4,-0.0215670000000001
298.6,-0.0168610000000002
298.80000000000007,-0.0170530000000002
299.0,-0.0171830000000001
299.20000000000005,-0.016045
299.4,-0.016024
299.6,-0.0169180000000002
299.79999999999995,-0.0135040000000004
299.9999999999999,-0.0107840000000003
300.19999999999993,-0.0086720000000002
300.4,-0.0063310000000003
300.5999999999999,-0.0065870000000003
300.79999999999995,-0.0085250000000003
300.9999999999999,-0.0099320000000002
301.19999999999993,-0.0104680000000003
301.4,-0.0111900000000002
301.5999999999999,-0.0123200000000003
301.79999999999995,-0.0146720000000002
301.9999999999999,-0.0150030000000003
302.19999999999993,-0.0163500000000003
302.4,-0.0170700000000003
302.5999999999999,-0.0169780000000003
302.79999999999995,-0.0148010000000002
302.9999999999999,-0.0178460000000002
303.19999999999993,-0.0196740000000004
303.4,-0.0198940000000003
303.5999999999999,-0.0178120000000003
303.79999999999995,-0.0178190000000002
303.9999999999999,-0.0148860000000003
304.19999999999993,-0.0132770000000002
304.4,-0.0118080000000002
304.5999999999999,-0.0128180000000002
304.79999999999995,-0.0145200000000003
304.9999999999999,-0.0163210000000002
305.19999999999993,-0.0166710000000003
305.4,-0.0182680000000003
305.5999999999999,-0.0211310000000002
305.79999999999995,-0.0223830000000002
305.9999999999999,-0.0223490000000003
306.19999999999993,-0.0253300000000002
306.4,-0.0250840000000003
306.5999999999999,-0.0221840000000002
306.79999999999995,-0.0183070000000002
306.9999999999999,-0.0158490000000002
307.19999999999993,-0.0127980000000003
307.4,-0.0143140000000003
307.5999999999999,-0.0158140000000002
307.79999999999995,-0.0168950000000003
307.9999999999999,-0.0193670000000003
308.19999999999993,-0.0219250000000001
308.4,-0.0230450000000002
308.5999999999999,-0.0254640000000003
308.79999999999995,-0.0268400000000001
308.9999999999999,-0.0274850000000002
309.19999999999993,-0.0273610000000004
309.4,-0.0252560000000003
309.5999999999999,-0.0222730000000002
309.79999999999995,-0.0215730000000002
309.9999999999999,-0.0200180000000003
310.19999999999993,-0.0179060000000002
310.4,-0.0176240000000003
310.5999999999999,-0.0200520000000004
310.79999999999995,-0.0227150000000002
310.9999999999999,-0.0266210000000002
311.19999999999993,-0.0296490000000002
311.4,-0.0293640000000003
311.5999999999999,-0.0259320000000002
311.79999999999995,-0.0223830000000002
311.9999999999999,-0.0193670000000003
312.19999999999993,-0.0185060000000003
312.4,-0.0210730000000003
312.5999999999999,-0.0236550000000002
312.79999999999995,-0.0234910000000003
312.9999999999999,-0.0212780000000003
313.19999999999993,-0.0192020000000003
313.4,-0.0167710000000003
313.5999999999999,-0.0151700000000003
313.79999999999995,-0.0161720000000002
313.9999999999999,-0.0184010000000003
314.19999999999993,-0.0182160000000002
314.4,-0.0168470000000002
314.5999999999999,-0.0145250000000003
314.79999999999995,-0.0138740000000003
314.9999999999999,-0.0165190000000003
315.19999999999993,-0.0196000000000002
315.4,-0.0246630000000003
315.5999999999999,-0.0273100000000003
315.79999999999995,-0.0265220000000003
315.9999999999999,-0.0255770000000004
316.19999999999993,-0.0256910000000003
316.4,-0.0244930000000003
316.5999999999999,-0.0226830000000002
316.79999999999995,-0.0217020000000003
316.9999999999999,-0.0170930000000002
317.19999999999993,-0.0132820000000002
317.4,-0.0112570000000002
317.5999999999999,-0.0147560000000002
317.79999999999995,-0.0211140000000003
317.9999999999999,-0.0280940000000002
318.19999999999993,-0.0307960000000002
318.4,-0.0299190000000002
318.5999999999999,-0.0284050000000002
318.79999999999995,-0.0275310000000001
318.9999999999999,-0.0258050000000003
319.19999999999993,-0.0271230000000002
319.4,-0.0278070000000003
319.5999999999999,-0.0283300000000004
319.79999999999995,-0.0259340000000003
319.9999999999999,-0.0252840000000003
320.19999999999993,-0.0238920000000002
320.4,-0.0252710000000002
320.5999999999999,-0.0251340000000002
320.79999999999995,-0.0245840000000003
320.9999999999999,-0.0233590000000003
321.19999999999993,-0.0250680000000003
321.4,-0.0250160000000003
321.5999999999999,-0.0243950000000003
321.79999999999995,-0.0241770000000003
321.9999999999999,-0.0231940000000003
322.19999999999993,-0.0208310000000002
322.4,-0.0176890000000002
322.5999999999999,-0.0165800000000002
322.79999999999995,-0.0194210000000003
322.9999999999999,-0.0236180000000003
323.19999999999993,-0.0288080000000003
323.4,-0.0341890000000002
323.5999999999999,-0.0369310000000002
323.79999999999995,-0.0346450000000002
323.9999999999999,-0.0318550000000004
324.19999999999993,-0.0268270000000003
324.4,-0.0247300000000003
324.5999999999999,-0.0245200000000003
324.79999999999995,-0.0270230000000002
324.9999999999999,-0.0282680000000004
325.19999999999993,-0.0285450000000002
325.4,-0.0295030000000002
325.5999999999999,-0.0302070000000003
325.79999999999995,-0.0266700000000001
325.9999999999999,-0.0244350000000002
326.19999999999993,-0.0245380000000003
326.4,-0.0215840000000002
326.5999999999999,-0.0194870000000002
326.79999999999995,-0.0193200000000002
326.9999999999999,-0.0185650000000003
327.19999999999993,-0.0188570000000003
327.4,-0.0217020000000003
327.5999999999999,-0.0234390000000002
327.79999999999995,-0.0238280000000004
327.9999999999999,-0.0236690000000003
328.19999999999993,-0.0238990000000003
328.4,-0.0239340000000003
328.5999999999999,-0.0247390000000002
328.79999999999995,-0.0250990000000002
328.9999999999999,-0.0267340000000002
329.19999999999993,-0.0272890000000003
329.4,-0.0270250000000003
329.5999999999999,-0.0252520000000002
329.79999999999995,-0.0234840000000002
329.9999999999999,-0.0191570000000003
330.19999999999993,-0.0167850000000002
330.4,-0.0152140000000002
330.5999999999999,-0.0136550000000001
330.79999999999995,-0.0138130000000002
330.9999999999999,-0.0180390000000003
331.19999999999993,-0.0200070000000003
331.4,-0.0212290000000003
331.5999999999999,-0.0218320000000002
331.79999999999995,-0.0222080000000002
331.9999999999999,-0.0189270000000003
332.19999999999993,-0.0142210000000002
332.4,-0.0130240000000003
332.5999999999999,-0.0141920000000002
332.79999999999995,-0.0150650000000003
332.9999999999999,-0.0173170000000002
333.19999999999993,-0.0215400000000003
333.4,-0.0245770000000002
333.5999999999999,-0.0289350000000003
333.79999999999995,-0.0326310000000003
333.9999999999999,-0.0345450000000002
334.19999999999993,-0.0328910000000002
334.4,-0.0281290000000002
334.5999999999999,-0.0208450000000002
334.79999999999995,-0.0176170000000002
334.9999999999999,-0.0162990000000002
335.19999999999993,-0.0179070000000003
335.4,-0.0196360000000002
335.5999999999999,-0.0211610000000002
335.79999999999995,-0.0214730000000002
335.9999999999999,-0.0238730000000002
336.19999999999993,-0.0252420000000002
336.4,-0.0260740000000003
336.5999999999999,-0.0268780000000004
336.79999999999995,-0.0296720000000003
336.9999999999999,-0.0308090000000003
337.19999999999993,-0.0328750000000002
337.4,-0.0350630000000002
337.5999999999999,-0.0357300000000002
337.79999999999995,-0.0329800000000002
337.9999999999999,-0.0282890000000002
338.19999999999993,-0.0252220000000003
338.4,-0.0232420000000002
338.5999999999999,-0.0237450000000003
338.79999999999995,-0.0256010000000002
338.9999999999999,-0.0287390000000002
339.19999999999993,-0.0289930000000002
339.4,-0.0263870000000003
339.5999999999999,-0.0205150000000002
339.79999999999995,-0.0143950000000003
339.9999999999999,-0.0096090000000002
340.19999999999993,-0.0085720000000002
340.4,-0.0111600000000002
340.5999999999999,-0.0149580000000002
340.79999999999995,-0.0163640000000002
340.9999999999999,-0.0154570000000002
341.19999999999993,-0.0132420000000001
341.4,-0.0130190000000003
341.5999999999999,-0.0158970000000002
341.79999999999995,-0.0200980000000003
341.9999999999999,-0.0259240000000002
342.19999999999993,-0.0300210000000002
342.4,-0.0308360000000003
342.5999999999999,-0.0302300000000002
342.79999999999995,-0.0278710000000002
342.9999999999999,-0.0230410000000003
343.19999999999993,-0.0155260000000003
343.4,-0.0101010000000003
343.5999999999999,-0.0075310000000003
343.79999999999995,-0.0092150000000001
343.9999999999999,-0.0118320000000002
344.19999999999993,-0.0186580000000002
344.4,-0.0217870000000002
344.5999999999999,-0.0203410000000003
344.79999999999995,-0.0181050000000002
344.9999999999999,-0.0208430000000003
345.19999999999993,-0.0213540000000003
345.4,-0.0236200000000001
345.5999999999999,-0.0279260000000003
345.79999999999995,-0.0321930000000003
345.9999999999999,-0.0328500000000002
346.19999999999993,-0.0318570000000002
346.4,-0.0307870000000003
346.5999999999999,-0.0290400000000004
346.79999999999995,-0.0262300000000001
346.9999999999999,-0.0223700000000002
347.19999999999993,-0.0205200000000003
347.4,-0.0195590000000003
347.5999999999999,-0.0183010000000003
347.79999999999995,-0.0164920000000003
347.9999999999999,-0.0168180000000002
348.19999999999993,-0.0170710000000002
348.4,-0.0186100000000002
348.5999999999999,-0.0197740000000004
348.79999999999995,-0.0210460000000003
348.9999999999999,-0.0207640000000002
349.19999999999993,-0.0204940000000002
349.4,-0.0197460000000002
349.5999999999999,-0.0215440000000002
349.79999999999995,-0.0237350000000002
349.9999999999999,-0.0242580000000003
350.19999999999993,-0.0261450000000003
350.4,-0.0274010000000002
350.5999999999999,-0.0275170000000002
350.79999999999995,-0.0251150000000002
350.9999999999999,-0.0247920000000003
351.19999999999993,-0.0257860000000003
351.4,-0.0248230000000002
351.5999999999999,-0.0222500000000003
351.79999999999995,-0.0221830000000002
351.9999999999999,-0.0235840000000002
352.19999999999993,-0.0232700000000003
352.4,-0.0253990000000003
352.5999999999999,-0.0275600000000002
352.79999999999995,-0.0306780000000002
352.9999999999999,-0.0323550000000003
353.19999999999993,-0.0322300000000002
353.4,-0.0300430000000002
353.5999999999999,-0.0295690000000004
353.79999999999995,-0.0304290000000002
353.9999999999999,-0.0301520000000004
354.19999999999993,-0.0291520000000002
354.4,-0.0307510000000001
354.5999999999999,-0.0328020000000002
354.79999999999995,-0.0299770000000003
354.9999999999999,-0.0266910000000002
355.19999999999993,-0.0243200000000003
355.4,-0.0196900000000002
355.5999999999999,-0.0162470000000003
355.79999999999995,-0.0169720000000002
355.9999999999999,-0.0223540000000002
356.19999999999993,-0.0269290000000002
356.4,-0.0308920000000003
356.5999999999999,-0.0302700000000002
356.79999999999995,-0.0282440000000003
356.9999999999999,-0.0225850000000003
357.19999999999993,-0.0199790000000004
357.4,-0.0184010000000003
357.5999999999999,-0.0200080000000002
357.79999999999995,-0.0209490000000003
357.9999999999999,-0.0226910000000002
358.19999999999993,-0.0235720000000003
358.4,-0.0260600000000001
358.5999999999999,-0.0288320000000004
358.79999999999995,-0.0306750000000002
358.9999999999999,-0.0326010000000003
359.19999999999993,-0.0324010000000003
359.4,-0.0328900000000003
359.5999999999999,-0.0306150000000002
359.79999999999995,-0.0308360000000003
359.9999999999999,-0.0278290000000003
360.19999999999993,-0.0298630000000001
360.4,-0.0297690000000003
360.5999999999999,-0.0302780000000002
360.8,-0.0244340000000002
360.9999999999999,-0.0218970000000002
361.19999999999993,-0.0176150000000003
361.4,-0.0139390000000003
361.5999999999999,-0.0121510000000002
361.8,-0.0159430000000002
361.9999999999999,-0.0178030000000002
362.19999999999993,-0.0198140000000002
362.4,-0.0247420000000002
362.5999999999999,-0.0300520000000004
362.8,-0.0329880000000002
362.9999999999999,-0.0357980000000002
363.19999999999993,-0.0372860000000003
363.4,-0.0342380000000002
363.5999999999999,-0.0304070000000002
363.8,-0.0316470000000002
363.9999999999999,-0.0325580000000003
364.19999999999993,-0.0316890000000003
364.4,-0.0273520000000002
364.5999999999999,-0.0252570000000003
364.8,-0.0189370000000002
364.9999999999999,-0.0163340000000002
365.19999999999993,-0.0157420000000003
365.4,-0.0189700000000003
365.5999999999999,-0.0189240000000003
365.8,-0.0206000000000003
365.9999999999999,-0.0203890000000002
366.19999999999993,-0.0195940000000003
366.4,-0.0219050000000002
366.5999999999999,-0.0252890000000003
366.8,-0.0269080000000003
366.9999999999999,-0.0272280000000002
367.19999999999993,-0.0277100000000003
367.4,-0.0247340000000002
367.5999999999999,-0.0227510000000004
367.8,-0.0238450000000003
367.9999999999999,-0.0269990000000002
368.19999999999993,-0.0300280000000003
368.4,-0.0312930000000002
368.5999999999999,-0.0304280000000003
368.8,-0.0260300000000002
368.9999999999999,-0.0222390000000003
369.19999999999993,-0.0177530000000003
369.4,-0.0189720000000002
369.5999999999999,-0.0232660000000002
369.8,-0.0281100000000003
369.9999999999999,-0.0327200000000003
370.19999999999993,-0.0367950000000003
370.4,-0.0396870000000002
370.5999999999999,-0.0414490000000002
370.8,-0.0453260000000002
370.9999999999999,-0.0460350000000002
371.19999999999993,-0.0455180000000003
371.4,-0.0423460000000002
371.5999999999999,-0.0379480000000003
371.8,-0.0317610000000003
371.9999999999999,-0.0296840000000002
372.19999999999993,-0.0309980000000003
372.4,-0.0309790000000003
372.5999999999999,-0.0326200000000003
372.8,-0.0354340000000004
372.9999999999999,-0.0353300000000003
373.19999999999993,-0.0343490000000004
373.4,-0.0366490000000003
373.5999999999999,-0.0360470000000003
373.8,-0.0344900000000003
373.9999999999999,-0.0332330000000002
374.19999999999993,-0.0331450000000002
374.4,-0.0320020000000003
374.5999999999999,-0.0326430000000002
374.8,-0.0329880000000002
374.9999999999999,-0.0344960000000003
375.19999999999993,-0.0342110000000002
375.4,-0.0351670000000003
375.5999999999999,-0.0355960000000004
375.8,-0.0366190000000004
375.9999999999999,-0.0368580000000002
376.19999999999993,-0.0364490000000004
376.4,-0.0361530000000003
376.5999999999999,-0.0352780000000003
376.8,-0.0343000000000002
376.9999999999999,-0.0326780000000002
377.19999999999993,-0.0328110000000003
377.4,-0.0328040000000002
377.5999999999999,-0.0329300000000003
377.8,-0.0300790000000004
377.9999999999999,-0.0251160000000003
378.19999999999993,-0.0219940000000002
378.4,-0.0204180000000002
378.5999999999999,-0.0212370000000003
378.8,-0.0234750000000003
378.9999999999999,-0.0289220000000003
379.19999999999993,-0.0329550000000002
379.4,-0.0345860000000002
379.5999999999999,-0.0340160000000002
379.8,-0.0339220000000002
379.9999999999999,-0.0320630000000004
380.19999999999993,-0.0291540000000003
380.4,-0.0267080000000003
380.5999999999999,-0.0260890000000002
380.8,-0.0296090000000002
380.9999999999999,-0.0337280000000002
381.19999999999993,-0.0385250000000003
381.4,-0.0421700000000002
381.5999999999999,-0.0436130000000003
381.8,-0.0416850000000001
381.9999999999999,-0.0394600000000002
382.19999999999993,-0.0362490000000002
382.4,-0.0344150000000003
382.5999999999999,-0.0327790000000003
382.8,-0.0312030000000003
382.9999999999999,-0.0310100000000002
383.19999999999993,-0.0311460000000003
383.4,-0.0286200000000003
383.5999999999999,-0.0264860000000002
383.8,-0.0260180000000003
383.9999999999999,-0.0250320000000003
384.19999999999993,-0.0251450000000001
384.4,-0.0250140000000003
384.5999999999999,-0.0265260000000002
384.8,-0.0266550000000003
384.9999999999999,-0.0288410000000003
385.19999999999993,-0.0283230000000003
385.4,-0.0295930000000002
385.5999999999999,-0.0288530000000002
385.8,-0.0300440000000004
385.9999999999999,-0.0299440000000001
386.19999999999993,-0.0316880000000003
386.4,-0.0314490000000002
386.5999999999999,-0.0299000000000002
386.8,-0.0257610000000003
386.9999999999999,-0.0252440000000002
387.19999999999993,-0.0263940000000002
387.4,-0.0301310000000003
387.5999999999999,-0.0335950000000002
387.8,-0.0368110000000003
387.9999999999999,-0.0344810000000002
388.19999999999993,-0.0285470000000003
388.4,-0.0246090000000003
388.5999999999999,-0.0245650000000003
388.8,-0.0286030000000003
388.9999999999999,-0.0316200000000002
389.19999999999993,-0.0366380000000003
389.4,-0.0341270000000002
389.5999999999999,-0.0308700000000003
389.8,-0.0245880000000002
389.9999999999999,-0.0239640000000003
390.19999999999993,-0.0229410000000003
390.4,-0.0263660000000003
390.5999999999999,-0.0311550000000002
390.8,-0.0344740000000003
390.9999999999999,-0.0331040000000002
391.19999999999993,-0.0297540000000002
391.4,-0.0282260000000003
391.5999999999999,-0.0244900000000003
391.8,-0.0232970000000003
391.9999999999999,-0.0238070000000003
392.19999999999993,-0.0255760000000002
392.4,-0.0265040000000003
392.5999999999999,-0.0275890000000003
392.8,-0.0278150000000003
392.9999999999999,-0.0285190000000004
393.19999999999993,-0.0275240000000003
393.4,-0.0260510000000002
393.5999999999999,-0.0251280000000002
393.8,-0.0267110000000003
393.9999999999999,-0.0255440000000002
394.19999999999993,-0.0254450000000003
394.4,-0.0270900000000002
394.5999999999999,-0.0273290000000003
394.8,-0.0239190000000002
394.9999999999999,-0.0233600000000002
395.19999999999993,-0.0260150000000003
395.4,-0.0248170000000003
395.5999999999999,-0.0227730000000003
395.8,-0.0230880000000002
395.9999999999999,-0.0254710000000002
396.19999999999993,-0.0277140000000002
396.4,-0.0304190000000001
396.5999999999999,-0.0353190000000003
396.8,-0.0402520000000004
396.9999999999999,-0.0425260000000002
397.19999999999993,-0.0409120000000002
397.4,-0.0393160000000003
397.5999999999999,-0.0374880000000004
397.8,-0.0333430000000003
397.9999999999999,-0.0281810000000002
398.19999999999993,-0.0274570000000002
398.4,-0.0276040000000004
398.5999999999999,-0.0276430000000003
398.8,-0.0283310000000003
398.9999999999999,-0.0324550000000003
399.19999999999993,-0.0365480000000002
399.4,-0.0411890000000003
399.5999999999999,-0.0424520000000003
399.8,-0.0429560000000002
399.9999999999999,-0.0416680000000002
400.19999999999993,-0.0388870000000003
400.4,-0.0363040000000003
400.5999999999999,-0.0367420000000002
400.8,-0.0380960000000003
400.9999999999999,-0.0374980000000002
401.19999999999993,-0.0343530000000003
401.4,-0.0334240000000003
401.5999999999999,-0.0304420000000003
401.8,-0.0281400000000002
401.9999999999999,-0.0284730000000001
402.19999999999993,-0.0303780000000002
402.4,-0.0293450000000004
402.5999999999999,-0.0279240000000002
402.8,-0.0267660000000002
402.9999999999999,-0.0249780000000003
403.19999999999993,-0.0261360000000003
403.4,-0.0255880000000003
403.5999999999999,-0.0271560000000004
403.8,-0.0281320000000002
403.9999999999999,-0.0295560000000003
404.19999999999993,-0.0289230000000002
404.4,-0.0296590000000003
404.5999999999999,-0.0288640000000002
404.8,-0.0266680000000003
404.9999999999999,-0.0234150000000004
405.19999999999993,-0.0193380000000003
405.4,-0.0188010000000002
405.5999999999999,-0.0202140000000004
405.8,-0.0216330000000002
405.9999999999999,-0.0242950000000004
406.19999999999993,-0.0271330000000002
406.4,-0.0294060000000002
406.5999999999999,-0.0307050000000002
406.8,-0.0352540000000003
406.9999999999999,-0.0381480000000002
407.19999999999993,-0.0408460000000003
407.4,-0.0395500000000001
407.5999999999999,-0.0361390000000003
407.8,-0.0321130000000002
407.9999999999999,-0.0312710000000002
408.19999999999993,-0.0316090000000002
408.4,-0.0337370000000003
408.5999999999999,-0.0381060000000001
408.8,-0.0414630000000002
408.9999999999999,-0.0401690000000003
409.19999999999993,-0.0382030000000002
409.4,-0.0352520000000002
409.5999999999999,-0.0328280000000003
409.8,-0.0296090000000002
409.9999999999999,-0.0293520000000002
410.19999999999993,-0.0288650000000003
410.4,-0.0296560000000003
410.5999999999999,-0.0310820000000002
410.8,-0.0329250000000003
410.9999999999999,-0.0340330000000002
411.19999999999993,-0.0325580000000003
411.4,-0.0311460000000003
411.5999999999999,-0.0303010000000003
411.8,-0.0310590000000003
411.9999999999999,-0.0304390000000003
412.19999999999993,-0.0324980000000003
412.4,-0.0336740000000002
412.5999999999999,-0.0324930000000003
412.8,-0.0291470000000002
412.9999999999999,-0.0266560000000002
413.19999999999993,-0.0245400000000002
413.4,-0.0247030000000003
413.5999999999999,-0.0280480000000002
413.8,-0.0308840000000003
413.9999999999999,-0.0314050000000003
414.19999999999993,-0.0316420000000003
414.4,-0.0322620000000002
414.5999999999999,-0.0336770000000004
414.8,-0.0363510000000002
414.9999999999999,-0.0384550000000003
415.19999999999993,-0.0401800000000003
415.4,-0.0397710000000002
415.5999999999999,-0.0391660000000002
415.8,-0.0373110000000003
415.9999999999999,-0.0367120000000003
416.19999999999993,-0.0355380000000002
416.4,-0.0358730000000002
416.5999999999999,-0.0323920000000002
416.8,-0.0317030000000002
416.9999999999999,-0.0333110000000003
417.19999999999993,-0.0355690000000004
417.4,-0.0377280000000002
417.5999999999999,-0.0396800000000003
417.8,-0.0389330000000003
417.9999999999999,-0.0385770000000003
418.19999999999993,-0.0400170000000004
418.4,-0.0382460000000002
418.5999999999999,-0.0370990000000002
418.8,-0.0371510000000003
418.9999999999999,-0.0390480000000001
419.19999999999993,-0.0396370000000003
419.4,-0.0420520000000002
419.5999999999999,-0.0419850000000003
419.8,-0.0404350000000002
419.9999999999999,-0.0362920000000002
420.19999999999993,-0.0346260000000002
420.4,-0.0344790000000003
420.5999999999999,-0.0380660000000003
420.8,-0.0406360000000003
420.9999999999999,-0.0428910000000002
421.19999999999993,-0.0416690000000004
421.4,-0.0381720000000003
421.5999999999999,-0.0325200000000003
421.8,-0.0305940000000002
421.9999999999999,-0.0296210000000003
422.19999999999993,-0.0265720000000002
422.4,-0.0248710000000003
422.5999999999999,-0.0255700000000003
422.8,-0.0275720000000003
422.9999999999999,-0.0274790000000002
423.19999999999993,-0.0310900000000002
423.4,-0.0348920000000003
423.5999999999999,-0.0363110000000002
423.8,-0.0333100000000003
423.9999999999999,-0.0315800000000003
424.19999999999993,-0.0309350000000003
424.4,-0.0314470000000002
424.5999999999999,-0.0344190000000002
424.8,-0.0377690000000003
424.9999999999999,-0.0415350000000003
425.19999999999993,-0.0414310000000002
425.4,-0.0410410000000003
425.5999999999999,-0.0388640000000002
425.8,-0.0392450000000001
425.9999999999999,-0.0399830000000003
426.19999999999993,-0.0420940000000003
426.4,-0.0412250000000002
426.5999999999999,-0.0416070000000003
426.8,-0.0408640000000002
426.9999999999999,-0.0405080000000002
427.19999999999993,-0.0370100000000002
427.4,-0.0380000000000002
427.5999999999999,-0.0396980000000002
427.8,-0.0392570000000003
427.9999999999999,-0.0333860000000003
428.19999999999993,-0.0297310000000003
428.4,-0.0266170000000003
428.5999999999999,-0.0245390000000003
428.8,-0.0247700000000004
428.9999999999999,-0.0298770000000003
429.19999999999993,-0.0374450000000003
429.4,-0.0405360000000003
429.5999999999999,-0.0400380000000002
429.8,-0.0400260000000003
429.9999999999999,-0.0407570000000003
430.19999999999993,-0.0396100000000003
430.4,-0.0370880000000002
430.5999999999999,-0.0369920000000003
430.8,-0.0368300000000003
430.9999999999999,-0.0337830000000003
431.19999999999993,-0.0317820000000002
431.4,-0.0313620000000003
431.5999999999999,-0.0318070000000003
431.8,-0.0339610000000003
431.9999999999999,-0.0365050000000002
432.19999999999993,-0.0389720000000002
432.4,-0.0407240000000002
432.5999999999999,-0.0423070000000003
432.8,-0.0397640000000003
432.9999999999999,-0.0377520000000002
433.19999999999993,-0.0346610000000002
433.4,-0.0331220000000003
433.5999999999999,-0.0305010000000003
433.8,-0.0319230000000003
433.9999999999999,-0.0339620000000002
434.19999999999993,-0.0346460000000004
434.4,-0.0352640000000004
434.5999999999999,-0.0359920000000002
434.8,-0.0366830000000002
434.9999999999999,-0.0386430000000002
435.19999999999993,-0.0415050000000003
435.4,-0.0431320000000003
435.5999999999999,-0.0437690000000003
435.8,-0.0424410000000003
435.9999999999999,-0.0396440000000002
436.19999999999993,-0.0378340000000003
436.4,-0.0367450000000002
436.5999999999999,-0.0353160000000003
436.8,-0.0340950000000002
436.9999999999999,-0.0345930000000003
437.19999999999993,-0.0353590000000003
437.4,-0.0361010000000003
437.5999999999999,-0.0380470000000003
437.8,-0.0375510000000003
437.9999999999999,-0.0336720000000003
438.19999999999993,-0.0312960000000002
438.4,-0.0307910000000002
438.5999999999999,-0.0307100000000002
438.8,-0.0319120000000003
438.9999999999999,-0.0365440000000003
439.19999999999993,-0.0430640000000002
439.4,-0.0468980000000003
439.5999999999999,-0.0482400000000002
439.8,-0.0469120000000002
439.9999999999999,-0.0431700000000003
440.19999999999993,-0.0379330000000002
440.4,-0.0356510000000003
440.5999999999999,-0.0357730000000002
440.8,-0.0375210000000003
440.9999999999999,-0.0400270000000002
441.19999999999993,-0.0393260000000001
441.4,-0.0385020000000002
441.5999999999999,-0.0363710000000003
441.8,-0.0347010000000003
441.9999999999999,-0.0315080000000003
442.19999999999993,-0.0287280000000003
442.4,-0.0264360000000003
442.5999999999999,-0.0253470000000002
442.8,-0.0285530000000002
442.9999999999999,-0.0319640000000003
443.19999999999993,-0.0376740000000002
443.4,-0.0385490000000003
443.5999999999999,-0.0397340000000003
443.8,-0.0378400000000003
443.9999999999999,-0.0376830000000003
444.19999999999993,-0.0362320000000002
444.4,-0.0388100000000002
444.5999999999999,-0.0389230000000002
444.8,-0.0377780000000003
444.9999999999999,-0.0352750000000003
445.19999999999993,-0.0352510000000003
445.4,-0.0363050000000002
445.5999999999999,-0.0375240000000003
445.8,-0.0393710000000002
445.9999999999999,-0.0420390000000003
446.19999999999993,-0.0428120000000002
446.4,-0.0398620000000002
446.5999999999999,-0.0375450000000003
446.8,-0.0357790000000002
446.9999999999999,-0.0352710000000002
447.19999999999993,-0.0362530000000003
447.4,-0.0405870000000003
447.5999999999999,-0.0428280000000003
447.8,-0.0431890000000003
447.9999999999999,-0.0445010000000003
448.19999999999993,-0.0438300000000002
448.4,-0.0391990000000002
448.5999999999999,-0.0376320000000003
448.8,-0.0384240000000002
448.9999999999999,-0.0394030000000003
449.19999999999993,-0.0380970000000002
449.4,-0.0389430000000003
449.5999999999999,-0.0392990000000001
449.8,-0.0382990000000003
449.9999999999999,-0.0340670000000002
450.19999999999993,-0.0331990000000002
450.4,-0.0340990000000003
450.5999999999999,-0.0367490000000003
450.8,-0.0417680000000002
450.9999999999999,-0.0464900000000003
451.19999999999993,-0.0494430000000003
451.4,-0.0484090000000003
451.5999999999999,-0.0446780000000002
451.8,-0.0419790000000002
451.9999999999999,-0.0429900000000003
452.19999999999993,-0.0439870000000002
452.4,-0.0471640000000002
452.5999999999999,-0.0470070000000002
452.8,-0.0437560000000003
452.9999999999999,-0.0383850000000003
453.19999999999993,-0.0356730000000002
453.4,-0.0331060000000003
453.5999999999999,-0.0351470000000002
453.8,-0.0354780000000003
453.9999999999999,-0.0354920000000003
454.19999999999993,-0.0341460000000002
454.4,-0.0334840000000002
454.5999999999999,-0.0351320000000003
454.8,-0.0380440000000004
454.9999999999999,-0.0405710000000003
455.19999999999993,-0.0425860000000002
455.4,-0.0442430000000002
455.5999999999999,-0.0413090000000002
455.8,-0.0406370000000002
455.9999999999999,-0.0405410000000003
456.19999999999993,-0.0386430000000002
456.4,-0.0355320000000003
456.5999999999999,-0.0353610000000002
456.8,-0.0356690000000003
456.9999999999999,-0.0384100000000002
457.19999999999993,-0.0410450000000002
457.4,-0.0450720000000002
457.5999999999999,-0.0469970000000004
457.8,-0.0482680000000002
457.9999999999999,-0.0462240000000002
458.19999999999993,-0.0447860000000002
458.4,-0.0412680000000003
458.5999999999999,-0.0379710000000002
458.8,-0.0350250000000003
458.9999999999999,-0.0344960000000003
459.19999999999993,-0.0345850000000003
459.4,-0.0340530000000003
459.5999999999999,-0.0369740000000002
459.8,-0.0379640000000003
459.9999999999999,-0.0374010000000002
460.19999999999993,-0.0381570000000002
460.4,-0.0426040000000003
460.5999999999999,-0.0428540000000003
460.8,-0.0407090000000003
460.9999999999999,-0.0380430000000002
461.19999999999993,-0.0350690000000002
461.4,-0.0320610000000003
461.5999999999999,-0.0319340000000003
461.8,-0.0353420000000002
461.9999999999999,-0.0371380000000003
462.19999999999993,-0.0368670000000002
462.4,-0.0359270000000002
462.5999999999999,-0.0351570000000003
462.8,-0.0334580000000002
462.9999999999999,-0.0337430000000003
463.19999999999993,-0.0348800000000002
463.4,-0.0360520000000001
463.5999999999999,-0.0374110000000003
463.8,-0.0405310000000003
463.9999999999999,-0.0415890000000003
464.19999999999993,-0.0428210000000002
464.4,-0.0404220000000004
464.5999999999999,-0.0373900000000002
464.8,-0.0357100000000003
464.9999999999999,-0.0387470000000003
465.19999999999993,-0.0392980000000002
465.4,-0.0419050000000003
465.5999999999999,-0.0452640000000001
465.8,-0.0479020000000003
465.9999999999999,-0.0491680000000003
466.19999999999993,-0.0515750000000003
466.4,-0.0527710000000003
466.5999999999999,-0.0515120000000002
466.8,-0.0494900000000002
466.9999999999999,-0.0458020000000003
467.19999999999993,-0.0409750000000002
467.4,-0.0399860000000003
467.5999999999999,-0.0376920000000002
467.8,-0.0325480000000002
467.9999999999999,-0.0293250000000002
468.19999999999993,-0.0302450000000003
468.4,-0.0302670000000002
468.5999999999999,-0.0323840000000004
468.8,-0.0358160000000002
468.9999999999999,-0.0379980000000002
469.19999999999993,-0.0409280000000003
469.4,-0.0422050000000002
469.5999999999999,-0.0417600000000002
469.8,-0.0446760000000003
469.9999999999999,-0.0456750000000003
470.19999999999993,-0.0455690000000001
470.4,-0.0459460000000002
470.5999999999999,-0.0479810000000002
470.8,-0.0439610000000003
470.9999999999999,-0.0403450000000003
471.19999999999993,-0.0366090000000003
471.4,-0.0347860000000002
471.5999999999999,-0.0349560000000002
471.8,-0.0381580000000003
471.9999999999999,-0.0416080000000003
472.19999999999993,-0.0443140000000004
472.4,-0.0451090000000002
472.5999999999999,-0.0431430000000003
472.8,-0.0400000000000002
472.9999999999999,-0.0370630000000002
473.19999999999993,-0.0339820000000004
473.4,-0.0322720000000003
473.5999999999999,-0.0323560000000002
473.8,-0.0347550000000003
473.9999999999999,-0.0373160000000003
474.19999999999993,-0.0412060000000003
474.4,-0.0449520000000003
474.5999999999999,-0.0465830000000002
474.8,-0.0473410000000003
474.9999999999999,-0.0473240000000003
475.19999999999993,-0.0467900000000003
475.4,-0.0466930000000003
475.5999999999999,-0.0471950000000003
475.8,-0.0481430000000002
475.9999999999999,-0.0490560000000002
476.19999999999993,-0.0490340000000002
476.4,-0.0464330000000003
476.5999999999999,-0.0441840000000002
476.8,-0.0397520000000002
476.9999999999999,-0.0386890000000001
477.19999999999993,-0.0370310000000002
477.4,-0.0353570000000003
477.5999999999999,-0.0323100000000002
477.8,-0.0336100000000003
477.9999999999999,-0.0335740000000002
478.19999999999993,-0.0363490000000004
478.4,-0.0416670000000003
478.5999999999999,-0.0477410000000002
478.8,-0.0506830000000002
478.9999999999999,-0.0496860000000003
479.19999999999993,-0.0462140000000002
479.4,-0.0424190000000002
479.5999999999999,-0.0405270000000002
479.8,-0.0372150000000002
479.9999999999999,-0.0354220000000002
480.19999999999993,-0.0367970000000004
480.4,-0.0390930000000002
480.5999999999999,-0.0391030000000003
480.8,-0.0400460000000002
480.9999999999999,-0.0430100000000002
481.19999999999993,-0.0455140000000002
481.4,-0.0453090000000002
481.5999999999999,-0.0445940000000002
481.8,-0.0443750000000002
481.9999999999999,-0.0442500000000003
482.19999999999993,-0.0428460000000003
482.4,-0.0439380000000002
482.5999999999999,-0.0444380000000002
482.8,-0.0460610000000003
482.9999999999999,-0.0509080000000004
483.19999999999993,-0.0518520000000002
483.4,-0.0502030000000002
483.5999999999999,-0.0504520000000003
483.8,-0.0491710000000003
483.9999999999999,-0.0453000000000003
484.19999999999993,-0.0448190000000003
484.4,-0.0439760000000002
484.5999999999999,-0.0433470000000002
484.8,-0.0421440000000004
484.9999999999999,-0.0391100000000002
485.19999999999993,-0.0349540000000003
485.4,-0.0335860000000003
485.5999999999999,-0.0323970000000002
485.8,-0.0336850000000004
485.9999999999999,-0.0370640000000002
486.19999999999993,-0.0423800000000003
486.4,-0.0451930000000002
486.5999999999999,-0.0483370000000002
486.8,-0.0485500000000003
486.9999999999999,-0.0471190000000003
487.19999999999993,-0.0428510000000001
487.4,-0.0418560000000003
487.5999999999999,-0.0389280000000002
487.8,-0.0378040000000003
487.9999999999999,-0.0386720000000002
488.19999999999993,-0.0434650000000003
488.4,-0.0459180000000003
488.5999999999999,-0.0497180000000003
488.8,-0.0511500000000002
488.9999999999999,-0.0513210000000003
489.19999999999993,-0.0481530000000003
489.4,-0.0469960000000002
489.5999999999999,-0.0460940000000003
489.8,-0.0470850000000002
489.9999999999999,-0.0449650000000003
490.19999999999993,-0.0455750000000003
490.4,-0.0427950000000003
490.5999999999999,-0.0411130000000004
490.8,-0.0396290000000003
490.9999999999999,-0.0424890000000002
491.19999999999993,-0.0407310000000002
491.4,-0.0383240000000002
491.5999999999999,-0.0366590000000002
491.8,-0.0370460000000003
491.9999999999999,-0.0379670000000003
492.19999999999993,-0.0400040000000003
492.4,-0.0446940000000002
492.5999999999999,-0.0473750000000003
492.8,-0.0485140000000003
492.9999999999999,-0.0470410000000003
493.19999999999993,-0.0452580000000002
493.4,-0.0412740000000002
493.5999999999999,-0.0380610000000003
493.8,-0.0360140000000002
493.9999999999999,-0.0341790000000004
494.19999999999993,-0.0346170000000003
494.4,-0.0338230000000003
494.5999999999999,-0.0349770000000002
494.8,-0.0356910000000003
494.9999999999999,-0.0369090000000003
495.19999999999993,-0.0380630000000004
495.4,-0.0416000000000003
495.5999999999999,-0.0439790000000002
495.8,-0.0455810000000003
495.9999999999999,-0.0437870000000002
496.19999999999993,-0.0422040000000003
496.4,-0.0424150000000003
496.5999999999999,-0.0414130000000003
496.8,-0.0395680000000002
496.9999999999999,-0.0412890000000003
497.19999999999993,-0.0437590000000003
497.4,-0.0437670000000003
497.5999999999999,-0.0396590000000003
497.8,-0.0377910000000003
497.9999999999999,-0.0377590000000003
498.19999999999993,-0.0363390000000003
498.4,-0.0363050000000002
498.5999999999999,-0.0386290000000002
498.8,-0.0390080000000003
498.9999999999999,-0.0373860000000003
499.19999999999993,-0.0361180000000003
499.4,-0.0363700000000002
499.5999999999999,-0.0399010000000004
499.8,-0.0447870000000003
499.9999999999999,-0.0466930000000003
500.19999999999993,-0.0474620000000003
500.4,-0.0472270000000003
500.5999999999999,-0.0443250000000003
500.8,-0.0417540000000002
500.9999999999999,-0.0404110000000002
501.19999999999993,-0.0404130000000002
501.4,-0.0375120000000002
501.5999999999999,-0.0364870000000003
501.8,-0.0363670000000002
501.9999999999999,-0.0371220000000003
502.19999999999993,-0.0369820000000002
502.4,-0.0393750000000003
502.5999999999999,-0.0419690000000003
502.8,-0.0437450000000003
502.9999999999999,-0.0449830000000002
503.19999999999993,-0.0455830000000003
503.4,-0.0439930000000003
503.5999999999999,-0.0432870000000003
503.8,-0.0404070000000003
503.9999999999999,-0.0393860000000003
504.19999999999993,-0.0381230000000003
504.4,-0.0390600000000003
504.5999999999999,-0.0389120000000002
504.8,-0.0410930000000002
504.9999999999999,-0.0425770000000003
505.19999999999993,-0.0450540000000003
505.4,-0.0458110000000002
505.5999999999999,-0.0468750000000002
505.8,-0.0439350000000002
505.9999999999999,-0.0424730000000002
506.19999999999993,-0.0425360000000003
506.4,-0.0432530000000002
506.5999999999999,-0.0420810000000002
506.8,-0.0441360000000004
506.9999999999999,-0.0452450000000002
507.19999999999993,-0.0424240000000002
507.4,-0.0400550000000003
507.5999999999999,-0.0409010000000003
507.8,-0.0407760000000003
507.9999999999999,-0.0403230000000003
508.19999999999993,-0.0441460000000002
508.4,-0.0482130000000002
508.5999999999999,-0.0497290000000003
508.8,-0.0489220000000003
508.9999999999999,-0.0469680000000003
509.19999999999993,-0.0440500000000003
509.4,-0.0411230000000002
509.5999999999999,-0.0380340000000003
509.8,-0.0397600000000002
509.9999999999999,-0.0390940000000004
510.19999999999993,-0.0387620000000004
510.4,-0.0376900000000002
510.5999999999999,-0.0384090000000003
510.8,-0.0374910000000003
510.9999999999999,-0.0381620000000002
511.19999999999993,-0.0392930000000002
511.4,-0.0383640000000002
511.5999999999999,-0.0378160000000002
511.8,-0.0349910000000002
511.99999999999983,-0.0337570000000002
512.1999999999998,-0.0337380000000002
512.3999999999999,-0.0361220000000002
512.5999999999999,-0.0385140000000003
512.8,-0.0424200000000003
512.9999999999998,-0.0467270000000004
513.1999999999998,-0.0466310000000003
513.3999999999999,-0.0481560000000003
513.5999999999999,-0.0480310000000003
513.8,-0.0473770000000002
513.9999999999998,-0.0456760000000002
514.1999999999998,-0.0458980000000002
514.3999999999999,-0.0441510000000002
514.5999999999999,-0.0403240000000002
514.8,-0.0362880000000003
514.9999999999998,-0.0338030000000002
515.1999999999998,-0.0357420000000003
515.3999999999999,-0.0394110000000003
515.5999999999999,-0.0448180000000002
515.8,-0.0472650000000003
515.9999999999998,-0.0468790000000003
516.1999999999998,-0.0430480000000002
516.3999999999999,-0.0397170000000002
516.5999999999999,-0.0379180000000003
516.8,-0.0397180000000003
516.9999999999998,-0.0433520000000002
517.1999999999998,-0.0453950000000002
517.3999999999999,-0.0435920000000003
517.5999999999999,-0.0419610000000003
517.8,-0.0410770000000002
517.9999999999998,-0.0396390000000002
518.1999999999998,-0.0386850000000003
518.3999999999999,-0.0406300000000003
518.5999999999999,-0.0403060000000004
518.8,-0.0391910000000002
518.9999999999998,-0.0402730000000002
519.1999999999998,-0.0420310000000003
519.3999999999999,-0.0416470000000002
519.5999999999999,-0.0425800000000002
519.8,-0.0446760000000003
519.9999999999998,-0.0441360000000004
520.1999999999998,-0.0447430000000002
520.3999999999999,-0.0476740000000002
520.5999999999999,-0.0503600000000004
520.8,-0.0505540000000002
520.9999999999998,-0.0514630000000002
521.1999999999998,-0.0525230000000003
521.3999999999999,-0.0502230000000003
521.5999999999999,-0.0471770000000002
521.8,-0.0438280000000002
521.9999999999998,-0.0428810000000003
522.1999999999998,-0.0392120000000002
522.3999999999999,-0.0377970000000003
522.5999999999999,-0.0326050000000002
522.8,-0.0310210000000004
522.9999999999998,-0.0278700000000002
523.1999999999998,-0.0290070000000002
523.3999999999999,-0.0318120000000003
523.5999999999999,-0.0398110000000002
523.8,-0.0465980000000003
523.9999999999998,-0.0516100000000003
524.1999999999998,-0.0553870000000003
524.3999999999999,-0.0530690000000002
524.5999999999999,-0.0493250000000002
524.8,-0.0465390000000003
524.9999999999998,-0.0460400000000003
525.1999999999998,-0.0436040000000002
525.3999999999999,-0.0449370000000002
525.5999999999999,-0.0451150000000002
525.8,-0.0458200000000001
525.9999999999998,-0.0456980000000002
526.1999999999998,-0.0430800000000002
526.3999999999999,-0.0427430000000002
526.5999999999999,-0.0452870000000003
526.8,-0.0464430000000002
526.9999999999998,-0.0466160000000002
527.1999999999998,-0.0476860000000003
527.3999999999999,-0.0492570000000003
527.5999999999999,-0.0469430000000004
527.8,-0.0432830000000004
527.9999999999998,-0.0406330000000003
528.1999999999998,-0.0395040000000002
528.3999999999999,-0.0370660000000002
528.5999999999999,-0.0362030000000002
528.8,-0.0378970000000002
528.9999999999998,-0.0400380000000002
529.1999999999998,-0.0451100000000002
529.3999999999999,-0.0479090000000002
529.5999999999999,-0.0499550000000001
529.8,-0.0503210000000002
529.9999999999998,-0.0502450000000003
530.1999999999998,-0.0474440000000002
530.3999999999999,-0.0460000000000002
530.5999999999999,-0.0466760000000003
530.8,-0.0465900000000003
530.9999999999998,-0.0467680000000003
531.1999999999998,-0.0434530000000004
531.3999999999999,-0.0419840000000002
531.5999999999999,-0.0413680000000002
531.8,-0.0429850000000002
531.9999999999998,-0.0437990000000003
532.1999999999998,-0.0483050000000002
532.3999999999999,-0.0509230000000002
532.5999999999999,-0.0529930000000002
532.8,-0.0536970000000003
532.9999999999998,-0.0526470000000003
533.1999999999998,-0.0500880000000003
533.3999999999999,-0.0488920000000003
533.5999999999999,-0.0489000000000003
533.8,-0.0484150000000003
533.9999999999998,-0.0512790000000003
534.1999999999998,-0.0561420000000003
534.3999999999999,-0.0594090000000002
534.5999999999999,-0.0587900000000003
534.8,-0.0579770000000003
534.9999999999998,-0.0544970000000002
535.1999999999998,-0.0494210000000003
535.3999999999999,-0.0467350000000001
535.5999999999999,-0.0464650000000002
535.8,-0.0463200000000003
535.9999999999998,-0.0451980000000002
536.1999999999998,-0.0450640000000002
536.3999999999999,-0.0459030000000002
536.5999999999999,-0.0481110000000002
536.8,-0.0501960000000003
536.9999999999998,-0.0527910000000002
537.1999999999998,-0.0558360000000002
537.3999999999999,-0.0571660000000002
537.5999999999999,-0.0541970000000002
537.8,-0.0505430000000002
537.9999999999998,-0.0485260000000002
538.1999999999998,-0.0453060000000002
538.3999999999999,-0.0421670000000002
538.5999999999999,-0.0397170000000002
538.8,-0.0405820000000003
538.9999999999998,-0.0423260000000003
539.1999999999998,-0.0441370000000003
539.3999999999999,-0.0454660000000002
539.5999999999999,-0.0483810000000002
539.8,-0.0476420000000004
539.9999999999998,-0.0450280000000002
540.1999999999998,-0.0466790000000003
540.3999999999999,-0.0480460000000002
540.5999999999999,-0.0471080000000003
540.8,-0.0477100000000003
540.9999999999998,-0.0498670000000003
541.1999999999998,-0.0475980000000002
541.3999999999999,-0.0456580000000002
541.5999999999999,-0.0460760000000002
541.8,-0.0464270000000002
541.9999999999998,-0.0452220000000003
542.1999999999998,-0.0453200000000002
542.3999999999999,-0.0436540000000003
542.5999999999999,-0.0423600000000004
542.8,-0.0400740000000003
542.9999999999998,-0.0389510000000004
543.1999999999998,-0.0376240000000003
543.3999999999999,-0.0391710000000002
543.5999999999999,-0.0421060000000002
543.8,-0.0479630000000002
543.9999999999998,-0.0555560000000003
544.1999999999998,-0.0617380000000002
544.3999999999999,-0.0633080000000003
544.5999999999999,-0.0634620000000003
544.8,-0.0600160000000002
544.9999999999998,-0.0547440000000003
545.1999999999998,-0.0504800000000003
545.3999999999999,-0.0493020000000004
545.5999999999999,-0.0471140000000003
545.8,-0.0459230000000003
545.9999999999998,-0.0459520000000002
546.1999999999998,-0.0476960000000004
546.3999999999999,-0.0480660000000003
546.5999999999999,-0.0481010000000003
546.8,-0.0483330000000004
546.9999999999998,-0.0481060000000002
547.1999999999998,-0.0456970000000003
547.3999999999999,-0.0448540000000003
547.5999999999999,-0.0457790000000002
547.8,-0.0457890000000003
547.9999999999998,-0.0438500000000003
548.1999999999998,-0.0425910000000002
548.3999999999999,-0.0424400000000002
548.5999999999999,-0.0447000000000004
548.8,-0.0471650000000003
548.9999999999998,-0.0489380000000003
549.1999999999998,-0.0492820000000002
549.3999999999999,-0.0487710000000003
549.5999999999999,-0.0456930000000002
549.8,-0.0417160000000003
549.9999999999998,-0.0403530000000003
550.1999999999998,-0.0419690000000003
550.3999999999999,-0.0431300000000003
550.5999999999999,-0.0440340000000003
550.8,-0.0481070000000003
550.9999999999998,-0.0502390000000003
551.1999999999998,-0.0503670000000002
551.3999999999999,-0.0502580000000003
551.5999999999999,-0.0499800000000003
551.8,-0.0499860000000003
551.9999999999998,-0.0524100000000002
552.1999999999998,-0.0547960000000002
552.3999999999999,-0.0557540000000003
552.5999999999999,-0.0556170000000002
552.8,-0.0502630000000003
552.9999999999998,-0.0451770000000002
553.1999999999998,-0.0433920000000003
553.3999999999999,-0.0434200000000002
553.5999999999999,-0.0426680000000003
553.8,-0.0470370000000002
553.9999999999998,-0.0506950000000003
554.1999999999998,-0.0535320000000003
554.3999999999999,-0.0525940000000002
554.5999999999999,-0.0530510000000004
554.8,-0.0526830000000002
554.9999999999998,-0.0539650000000002
555.1999999999998,-0.0543670000000002
555.3999999999999,-0.0582350000000002
555.5999999999999,-0.0604630000000003
555.8,-0.0628140000000003
555.9999999999998,-0.0601360000000004
556.1999999999998,-0.0547220000000003
556.3999999999999,-0.0493760000000003
556.5999999999999,-0.0458970000000003
556.8,-0.0430200000000002
556.9999999999998,-0.0420760000000002
557.1999999999998,-0.0435140000000002
557.3999999999999,-0.0436580000000002
557.5999999999999,-0.0447400000000002
557.8,-0.0438920000000002
557.9999999999998,-0.0429990000000002
558.1999999999998,-0.0430490000000003
558.3999999999999,-0.0427810000000004
558.5999999999999,-0.0416590000000003
558.8,-0.0411370000000002
558.9999999999998,-0.0444820000000003
559.1999999999998,-0.0458250000000002
559.3999999999999,-0.0475300000000002
559.5999999999999,-0.0495850000000002
559.8,-0.0537020000000003
559.9999999999998,-0.0530780000000004
560.1999999999998,-0.0522440000000004
560.3999999999999,-0.0490730000000003
560.5999999999999,-0.0451240000000003
560.8,-0.0405970000000002
560.9999999999998,-0.0417090000000002
561.1999999999998,-0.0424650000000002
561.3999999999999,-0.0447750000000002
561.5999999999999,-0.0497720000000003
561.8,-0.0527880000000002
561.9999999999998,-0.0510810000000003
562.1999999999998,-0.0485760000000004
562.3999999999999,-0.0482020000000003
562.5999999999999,-0.0469510000000004
562.8,-0.0463230000000003
562.9999999999998,-0.0444280000000003
563.1999999999998,-0.0447420000000002
563.3999999999999,-0.0455000000000003
563.5999999999999,-0.0483980000000003
563.8,-0.0518030000000002
563.9999999999998,-0.0537960000000004
564.1999999999998,-0.0573770000000002
564.3999999999999,-0.0588780000000002
564.5999999999999,-0.0581870000000002
564.8,-0.0550850000000002
564.9999999999998,-0.0558750000000003
565.1999999999998,-0.0543810000000002
565.3999999999999,-0.0557750000000003
565.5999999999999,-0.0545150000000003
565.8,-0.0533280000000002
565.9999999999998,-0.0509530000000002
566.1999999999998,-0.0463040000000003
566.3999999999999,-0.0381370000000003
566.5999999999999,-0.0364240000000002
566.8,-0.0382120000000003
566.9999999999998,-0.0416020000000003
567.1999999999998,-0.0461730000000002
567.3999999999999,-0.0525240000000002
567.5999999999999,-0.0527100000000002
567.8,-0.0527870000000003
567.9999999999998,-0.0520080000000002
568.1999999999998,-0.0513460000000003
568.3999999999999,-0.0492930000000002
568.5999999999999,-0.0487230000000002
568.8,-0.0478020000000003
568.9999999999998,-0.0474140000000002
569.1999999999998,-0.0464940000000002
569.3999999999999,-0.0489430000000004
569.5999999999999,-0.0497380000000002
569.8,-0.0471580000000002
569.9999999999998,-0.0442400000000002
570.1999999999998,-0.0446790000000003
570.3999999999999,-0.0418820000000002
570.5999999999999,-0.0400230000000003
570.8,-0.0432940000000003
570.9999999999998,-0.0490740000000002
571.1999999999998,-0.0541580000000003
571.3999999999999,-0.0593310000000002
571.5999999999999,-0.0641910000000003
571.8,-0.0634920000000003
571.9999999999998,-0.0582440000000004
572.1999999999998,-0.0518700000000003
572.3999999999999,-0.0458220000000002
572.5999999999999,-0.0397050000000003
572.8,-0.0384110000000001
572.9999999999998,-0.0416810000000003
573.1999999999998,-0.0470000000000003
573.3999999999999,-0.0532920000000003
573.5999999999999,-0.0606860000000002
573.7999999999997,-0.0652680000000003
573.9999999999998,-0.0656090000000002
574.1999999999998,-0.0639200000000002
574.3999999999999,-0.0610200000000002
574.5999999999999,-0.0611890000000003
574.7999999999997,-0.0615430000000003
574.9999999999998,-0.0580440000000002
575.1999999999998,-0.0525670000000002
575.3999999999999,-0.0489650000000003
575.5999999999999,-0.0437150000000003
575.7999999999997,-0.0399100000000003
575.9999999999998,-0.0402840000000002
576.1999999999998,-0.0444610000000003
576.3999999999999,-0.0486380000000004
576.5999999999999,-0.0514880000000002
576.7999999999997,-0.0527670000000002
576.9999999999998,-0.0551980000000003
577.1999999999998,-0.0571590000000004
577.3999999999999,-0.0571620000000003
577.5999999999999,-0.0551300000000003
577.7999999999997,-0.0555530000000004
577.9999999999998,-0.0558170000000002
578.1999999999998,-0.0547270000000001
578.3999999999999,-0.0518550000000002
578.5999999999999,-0.0515400000000003
578.7999999999997,-0.0496640000000003
578.9999999999998,-0.0473160000000003
579.1999999999998,-0.0440960000000003
579.3999999999999,-0.0459480000000003
579.5999999999999,-0.0478450000000003
579.7999999999997,-0.0492720000000002
579.9999999999998,-0.0526150000000003
580.1999999999998,-0.0559490000000002
580.3999999999999,-0.0576350000000003
580.5999999999999,-0.0588750000000002
580.7999999999997,-0.0629480000000002
580.9999999999998,-0.0622000000000002
581.1999999999998,-0.0618040000000001
581.3999999999999,-0.0620840000000002
581.5999999999999,-0.0619310000000004
581.7999999999997,-0.0585420000000003
581.9999999999998,-0.0582620000000002
582.1999999999998,-0.0596020000000003
582.3999999999999,-0.0564740000000003
582.5999999999999,-0.0542310000000003
582.7999999999997,-0.0528390000000003
582.9999999999998,-0.0509040000000002
583.1999999999998,-0.0493270000000003
583.3999999999999,-0.0498980000000002
583.5999999999999,-0.0486900000000003
583.7999999999997,-0.0456690000000004
583.9999999999998,-0.0449990000000002
584.1999999999998,-0.0462000000000002
584.3999999999999,-0.0506550000000003
584.5999999999999,-0.0543680000000001
584.7999999999997,-0.0572750000000004
584.9999999999998,-0.0588080000000001
585.1999999999998,-0.0547860000000002
585.3999999999999,-0.0480540000000002
585.5999999999999,-0.0420850000000003
585.7999999999997,-0.0397350000000003
585.9999999999998,-0.0402730000000002
586.1999999999998,-0.0416700000000003
586.3999999999999,-0.0454270000000003
586.5999999999999,-0.0482000000000002
586.7999999999997,-0.0502060000000001
586.9999999999998,-0.0496140000000002
587.1999999999998,-0.0528530000000002
587.3999999999999,-0.0514690000000002
587.5999999999999,-0.0537900000000002
587.7999999999997,-0.0565060000000003
587.9999999999998,-0.0608970000000002
588.1999999999998,-0.0599980000000002
588.3999999999999,-0.0617250000000002
588.5999999999999,-0.0599470000000001
588.7999999999997,-0.0579760000000002
588.9999999999998,-0.0543020000000002
589.1999999999998,-0.0555820000000002
589.3999999999999,-0.0555880000000001
589.5999999999999,-0.0562000000000002
589.7999999999997,-0.0544850000000003
589.9999999999998,-0.0550530000000002
590.1999999999998,-0.0537710000000002
590.3999999999999,-0.0540840000000002
590.5999999999999,-0.0564550000000003
590.7999999999997,-0.0594470000000002
590.9999999999998,-0.0591790000000003
591.1999999999998,-0.0570500000000002
591.3999999999999,-0.0556730000000003
591.5999999999999,-0.0522040000000003
591.7999999999997,-0.0497950000000002
591.9999999999998,-0.0480330000000002
592.1999999999998,-0.0493800000000002
592.3999999999999,-0.0486940000000002
592.5999999999999,-0.0494620000000003
592.7999999999997,-0.0506830000000002
592.9999999999998,-0.0509010000000003
593.1999999999998,-0.0497060000000002
593.3999999999999,-0.0512760000000003
593.5999999999999,-0.0532930000000002
593.7999999999997,-0.0534710000000002
593.9999999999998,-0.0526580000000003
594.1999999999998,-0.0510750000000002
594.3999999999999,-0.0499810000000002
594.5999999999999,-0.0494680000000002
594.7999999999997,-0.0493670000000003
594.9999999999998,-0.0495850000000002
595.1999999999998,-0.0508330000000003
595.3999999999999,-0.0511400000000004
595.5999999999999,-0.0504940000000002
595.7999999999997,-0.0487710000000003
595.9999999999998,-0.0493650000000003
596.1999999999998,-0.0487780000000002
596.3999999999999,-0.0487320000000002
596.5999999999999,-0.0485890000000002
596.7999999999997,-0.0502630000000003
596.9999999999998,-0.0495680000000002
597.1999999999998,-0.0497710000000002
597.3999999999999,-0.0492750000000004
597.5999999999999,-0.0482990000000003
597.7999999999997,-0.0474090000000002
597.9999999999998,-0.0480400000000003
598.1999999999998,-0.0494460000000003
598.3999999999999,-0.0492970000000003
598.5999999999999,-0.0499680000000002
598.7999999999997,-0.0509790000000003
598.9999999999998,-0.0507560000000002
