Time (s),Shift (nm)
0.0,0.0
0.1999999999999886,0.0001519999999999
0.4000000000000341,-0.0002460000000001
0.6000000000000227,0.0018349999999998
0.8000000000000114,0.0038299999999997
1.0,0.0066399999999999
1.2000000000000457,0.0102319999999997
1.400000000000034,0.0105879999999998
1.6000000000000227,0.0102709999999999
1.8000000000000114,0.0081359999999999
2.0,0.0053729999999996
2.200000000000045,0.0025859999999999
2.400000000000034,0.0019329999999997
2.6000000000000227,-0.0001600000000001
2.800000000000012,-0.0014830000000003
3.0,-0.0016950000000002
3.200000000000045,-0.0007830000000002
3.400000000000034,-0.0007300000000003
3.6000000000000227,0.0015599999999995
3.8000000000000114,0.0044169999999996
4.0,0.0077129999999998
4.2000000000000455,0.0097809999999998
4.400000000000034,0.0112739999999997
4.600000000000023,0.0110429999999999
4.800000000000011,0.0102459999999999
5.0,0.0113279999999997
5.2000000000000455,0.0112659999999995
5.400000000000034,0.0112469999999995
5.600000000000023,0.0106559999999995
5.800000000000011,0.0080209999999998
6.0,0.0034689999999999
6.2000000000000455,0.0002879999999998
6.400000000000034,-0.0009420000000002
6.600000000000023,0.0006839999999996
6.800000000000011,0.0054069999999999
7.0,0.0094099999999999
7.2000000000000455,0.0109429999999997
7.400000000000034,0.0106569999999996
7.600000000000023,0.0085019999999995
7.800000000000011,0.0075809999999996
8.0,0.0069889999999999
8.200000000000045,0.0097759999999995
8.400000000000034,0.0122189999999999
8.600000000000023,0.0136979999999997
8.800000000000011,0.0112389999999997
9.0,0.0082089999999999
9.200000000000044,0.0046589999999997
9.400000000000034,0.0031749999999997
9.600000000000025,0.0033309999999997
9.800000000000011,0.0049169999999998
10.0,0.0061289999999996
10.200000000000044,0.0063429999999997
10.400000000000034,0.0061299999999997
10.600000000000025,0.0061509999999995
10.800000000000011,0.0065439999999998
11.0,0.0070369999999999
11.200000000000044,0.0065739999999996
11.400000000000034,0.0075589999999996
11.600000000000025,0.0068269999999999
11.800000000000011,0.0068389999999998
12.0,0.0063019999999998
12.200000000000044,0.0080239999999998
12.400000000000034,0.0086939999999997
12.600000000000025,0.0113889999999998
12.800000000000011,0.0137209999999998
13.0,0.0154249999999995
13.200000000000044,0.0148029999999996
13.400000000000034,0.0141029999999999
13.600000000000025,0.0124309999999998
13.800000000000011,0.0104999999999999
14.0,0.0103959999999996
14.200000000000044,0.0113759999999998
14.400000000000034,0.0116029999999995
14.600000000000025,0.0114269999999998
14.800000000000011,0.0103999999999997
15.0,0.0096089999999997
15.200000000000044,0.0103039999999996
15.400000000000034,0.0091439999999995
15.600000000000025,0.0071789999999998
15.800000000000011,0.0051059999999996
16.0,0.0019309999999999
16.200000000000045,0.0002619999999997
16.400000000000034,-0.0005000000000001
16.600000000000023,0.0002849999999998
16.80000000000001,0.0025549999999996
17.0,0.0048479999999999
17.200000000000045,0.0044839999999997
17.400000000000034,0.0054699999999998
17.600000000000023,0.0072369999999999
17.80000000000001,0.0048369999999997
18.0,0.0035779999999996
18.200000000000045,0.0008079999999996
18.400000000000038,-0.0020410000000001
18.600000000000023,-0.0041760000000001
18.80000000000001,-0.0009010000000002
19.0,0.0010479999999999
19.200000000000045,0.0031909999999997
19.400000000000038,0.0041589999999995
19.600000000000023,0.0048769999999995
19.80000000000001,0.0036729999999995
20.0,0.0048419999999995
20.200000000000045,0.0072479999999996
20.400000000000038,0.0100389999999999
20.600000000000023,0.0091449999999997
20.80000000000001,0.0083159999999997
21.0,0.0058549999999999
21.200000000000045,0.0039879999999996
21.400000000000038,0.0026279999999996
21.600000000000023,0.0041919999999997
21.80000000000001,0.0064009999999998
22.0,0.0068429999999999
22.200000000000045,0.0061999999999997
22.400000000000038,0.0055749999999998
22.600000000000023,0.0051599999999996
22.80000000000001,0.0032799999999997
23.0,0.0047879999999995
23.200000000000045,0.0050219999999998
23.400000000000038,0.0040059999999999
23.600000000000023,0.0011099999999997
23.80000000000001,-0.0006300000000001
24.0,-0.002688
24.200000000000045,-0.00374
24.400000000000038,-0.0030700000000001
24.600000000000023,-0.0009340000000004
24.80000000000001,0.0022979999999996
25.0,0.0040639999999996
25.200000000000045,0.0044369999999998
25.400000000000038,0.0056259999999999
25.600000000000023,0.0058859999999998
25.80000000000001,0.0051199999999997
26.0,0.0040749999999998
26.200000000000045,0.0046959999999995
26.400000000000038,0.0045139999999999
26.600000000000023,0.0072609999999997
26.80000000000001,0.0082779999999997
27.0,0.0072589999999999
27.200000000000045,0.0049169999999998
27.400000000000038,0.0033469999999997
27.600000000000023,-0.0007830000000002
27.80000000000001,-0.0029830000000004
28.0,-0.001786
28.200000000000045,0.0022299999999999
28.400000000000038,0.0044439999999998
28.600000000000023,0.0058929999999999
28.80000000000001,0.0061719999999998
29.0,0.0052969999999996
29.200000000000045,0.0033279999999997
29.400000000000038,0.0006469999999998
29.600000000000023,-0.001443
29.80000000000001,-0.0018570000000002
30.0,2.799999999991698e-05
30.200000000000045,0.0007079999999999
30.400000000000038,0.0032309999999999
30.600000000000023,0.0063379999999999
30.80000000000001,0.0075999999999996
31.0,0.0068549999999998
31.200000000000045,0.0069799999999999
31.400000000000038,0.0054629999999997
31.600000000000023,0.0039309999999996
31.80000000000001,0.0024929999999998
32.0,0.0008869999999996
32.200000000000045,-0.0009500000000004
32.400000000000034,-0.0015
32.60000000000002,-0.0029530000000002
32.80000000000001,-0.0043680000000003
33.0,-0.0053870000000002
33.200000000000045,-0.0043600000000001
33.400000000000034,-0.0024810000000003
33.60000000000002,0.0004509999999999
33.80000000000001,0.0048529999999997
34.0,0.0085689999999996
34.200000000000045,0.0108979999999996
34.400000000000034,0.0105979999999998
34.60000000000002,0.0083559999999995
34.80000000000001,0.0050289999999999
35.0,0.0028149999999995
35.200000000000045,0.0012229999999999
35.400000000000034,0.0001779999999995
35.60000000000002,0.0009629999999996
35.80000000000001,0.0006939999999997
36.0,-0.0015500000000003
36.200000000000045,-0.0039070000000003
36.400000000000034,-0.0042110000000001
36.60000000000002,-0.0039010000000003
36.80000000000001,-0.0038720000000003
37.0,-0.0032990000000001
37.200000000000045,0.0001939999999995
37.400000000000034,0.0034989999999996
37.60000000000002,0.0043549999999998
37.80000000000001,0.0066809999999999
38.0,0.0100259999999998
38.200000000000045,0.0097049999999998
38.400000000000034,0.0065709999999996
38.60000000000002,0.0045859999999997
38.80000000000001,0.0035049999999996
39.0,0.0014469999999997
39.200000000000045,-0.000493
39.400000000000034,-0.0016410000000002
39.60000000000002,0.0005459999999999
39.80000000000001,-0.0003230000000002
40.0,-0.0011900000000002
40.200000000000045,-0.0023690000000002
40.400000000000034,-0.0017950000000004
40.60000000000002,-0.0035500000000001
40.80000000000001,-0.0030100000000001
41.0,-0.001433
41.200000000000045,0.0011539999999996
41.400000000000034,0.0013269999999998
41.60000000000002,-0.0003450000000002
41.80000000000001,-0.0033360000000004
42.0,-0.0036930000000001
42.200000000000045,-0.0045130000000002
42.400000000000034,-0.0045760000000001
42.60000000000002,-0.0037580000000003
42.80000000000001,-0.002056
43.0,-0.0028140000000003
43.200000000000045,-0.0026550000000002
43.400000000000034,-0.0025320000000004
43.60000000000002,-0.0014340000000001
43.80000000000001,-0.0003590000000004
44.0,0.0011819999999995
44.200000000000045,-0.0001230000000003
44.400000000000034,-0.0001980000000001
44.60000000000002,-0.0008450000000004
44.80000000000001,-0.000655
45.0,-9.10000000002853e-05
45.200000000000045,0.0003319999999997
45.400000000000034,0.0006849999999998
45.60000000000002,0.0011979999999995
45.80000000000001,0.0014519999999995
46.0,0.0015089999999999
46.200000000000045,0.0021929999999996
46.400000000000034,0.0025089999999998
46.60000000000002,0.0038709999999997
46.80000000000001,0.0041009999999999
47.0,0.0030209999999999
47.200000000000045,0.0011459999999998
47.400000000000034,0.0008029999999998
47.60000000000002,-0.0015490000000002
47.80000000000001,-0.003435
48.0,-0.0053870000000002
48.200000000000045,-0.0042170000000001
48.400000000000034,-0.004823
48.60000000000002,-0.0049140000000003
48.80000000000001,-0.004007
49.0,-0.0037890000000002
49.200000000000045,-0.0042690000000003
49.400000000000034,-0.0046100000000004
49.60000000000002,-0.0052560000000001
49.80000000000001,-0.0055580000000001
50.0,-0.004677
50.200000000000045,-0.0042660000000003
50.400000000000034,-0.0033530000000001
50.60000000000002,-0.002383
50.80000000000001,-0.0027220000000003
51.0,-0.0037520000000004
51.200000000000045,-0.0035750000000001
51.400000000000034,-0.0035920000000002
51.60000000000002,-0.0035380000000002
51.80000000000001,-0.0029850000000002
52.0,-0.002761
52.200000000000045,-0.0035450000000003
52.400000000000034,-0.0051110000000003
52.60000000000002,-0.0050770000000004
52.80000000000001,-0.005147
53.0,-0.004868
53.200000000000045,-0.0050860000000003
53.400000000000034,-0.004833
53.60000000000002,-0.0047330000000003
53.80000000000001,-0.0044730000000003
54.0,-0.003476
54.200000000000045,-0.0033720000000001
54.400000000000034,-0.002504
54.60000000000002,-0.0019070000000001
54.80000000000001,-0.0017740000000001
55.0,-0.0031070000000004
55.200000000000045,-0.0040370000000002
55.400000000000034,-0.0060610000000003
55.60000000000002,-0.0091710000000002
55.80000000000001,-0.0122810000000002
56.0,-0.0117880000000001
56.200000000000045,-0.0102550000000003
56.400000000000034,-0.0059060000000004
56.60000000000002,-0.0013840000000002
56.80000000000001,0.0010889999999998
57.0,0.0009749999999999
57.200000000000045,-0.000944
57.400000000000034,-0.0050610000000004
57.60000000000002,-0.0090290000000003
57.80000000000001,-0.0090790000000002
58.0,-0.009236
58.200000000000045,-0.0080790000000003
58.400000000000034,-0.007206
58.60000000000002,-0.0062100000000002
58.80000000000001,-0.0067800000000004
59.0,-0.007959
59.200000000000045,-0.009894
59.400000000000034,-0.0112810000000003
59.60000000000002,-0.0106920000000001
59.80000000000001,-0.0101520000000001
60.0,-0.0082810000000002
60.200000000000045,-0.0058790000000001
60.400000000000034,-0.0043330000000003
60.60000000000002,-0.0043650000000003
60.80000000000001,-0.0027500000000002
61.0,-0.0020000000000002
61.200000000000045,-0.00069
61.400000000000034,7.299999999998974e-05
61.60000000000002,0.0009349999999996
61.80000000000007,-0.000245
62.0,-0.0012150000000001
62.200000000000045,-0.0022420000000002
62.39999999999998,-0.0024710000000003
62.60000000000002,-0.003543
62.80000000000007,-0.0053710000000002
63.0,-0.0063530000000002
63.200000000000045,-0.0073320000000003
63.39999999999998,-0.008639
63.60000000000002,-0.010005
63.80000000000007,-0.0106990000000002
64.0,-0.0137840000000002
64.20000000000005,-0.0157880000000001
64.39999999999998,-0.0160220000000004
64.60000000000002,-0.0153190000000003
64.80000000000007,-0.0140350000000002
65.0,-0.0110420000000002
65.20000000000005,-0.0103270000000001
65.39999999999998,-0.0112800000000001
65.60000000000002,-0.0120300000000002
65.80000000000007,-0.0138260000000003
66.0,-0.0157320000000003
66.20000000000005,-0.0145110000000001
66.39999999999998,-0.0127260000000002
66.60000000000002,-0.0117510000000002
66.80000000000007,-0.0103490000000001
67.0,-0.0076010000000001
67.20000000000005,-0.0076210000000003
67.39999999999998,-0.0068960000000002
67.60000000000002,-0.005926
67.80000000000007,-0.0067790000000003
68.0,-0.0095840000000002
68.20000000000005,-0.0102290000000002
68.39999999999998,-0.0119800000000003
68.60000000000002,-0.0141440000000003
68.80000000000007,-0.0132090000000002
69.0,-0.0104200000000003
69.20000000000005,-0.007743
69.39999999999998,-0.0062770000000003
69.60000000000002,-0.0050910000000001
69.80000000000007,-0.0062660000000001
70.0,-0.0075500000000001
70.20000000000005,-0.0084220000000003
70.39999999999998,-0.0080240000000002
70.60000000000002,-0.0069730000000003
70.80000000000007,-0.0052480000000003
71.0,-0.00536
71.20000000000005,-0.0077190000000002
71.39999999999998,-0.0096130000000003
71.60000000000002,-0.0110670000000001
71.80000000000007,-0.0120370000000002
72.0,-0.011873
72.20000000000005,-0.009786
72.39999999999998,-0.0085050000000004
72.60000000000002,-0.0064960000000002
72.80000000000007,-0.0048100000000004
73.0,-0.004331
73.20000000000005,-0.0052760000000002
73.39999999999998,-0.0045140000000003
73.60000000000002,-0.0030670000000001
73.80000000000007,-0.0014090000000002
74.0,2.399999999980196e-05
74.20000000000005,0.0008719999999997
74.39999999999998,-0.000115
74.60000000000002,-0.0046380000000003
74.80000000000007,-0.0088130000000004
75.0,-0.0100260000000003
75.20000000000005,-0.0084160000000004
75.39999999999998,-0.0078720000000003
75.60000000000002,-0.0066460000000003
75.80000000000007,-0.0063530000000002
76.0,-0.006383
76.20000000000005,-0.0093970000000003
76.39999999999998,-0.012391
76.60000000000002,-0.0147970000000001
76.80000000000007,-0.014145
77.0,-0.012852
77.20000000000005,-0.0110620000000003
77.39999999999998,-0.0079670000000002
77.60000000000002,-0.004823
77.80000000000007,-0.0030230000000002
78.0,-0.0019050000000002
78.20000000000005,-0.0012790000000002
78.39999999999998,-0.001262
78.60000000000002,-0.0011700000000001
78.80000000000007,-0.0020650000000004
79.0,-0.0053520000000002
79.20000000000005,-0.0062840000000004
79.39999999999998,-0.0062350000000002
79.60000000000002,-0.0064520000000003
79.80000000000007,-0.0074710000000002
80.0,-0.0064040000000002
80.20000000000005,-0.0061410000000003
80.39999999999998,-0.0056520000000004
80.60000000000002,-0.004394
80.80000000000007,-0.0030080000000003
81.0,-0.0016190000000002
81.20000000000005,-0.0031100000000003
81.39999999999998,-0.0046630000000003
81.60000000000002,-0.006993
81.80000000000007,-0.0067340000000002
82.0,-0.0072160000000001
82.20000000000005,-0.0046830000000004
82.39999999999998,-0.0026810000000003
82.60000000000002,0.0004959999999996
82.80000000000007,0.0018109999999995
83.0,0.0020329999999999
83.20000000000005,-0.0009920000000001
83.39999999999998,-0.004331
83.60000000000002,-0.0080500000000003
83.80000000000007,-0.0101210000000002
84.0,-0.0108570000000001
84.20000000000005,-0.0082520000000001
84.39999999999998,-0.0071940000000001
84.60000000000002,-0.0071310000000002
84.80000000000007,-0.0065050000000002
85.0,-0.0042680000000001
85.20000000000005,-0.0047350000000001
85.39999999999998,-0.004642
85.60000000000002,-0.0039850000000001
85.80000000000007,-0.0032680000000002
86.0,-0.0041160000000002
86.20000000000005,-0.0042080000000002
86.39999999999998,-0.002806
86.60000000000002,-0.0031780000000001
86.80000000000007,-0.0062360000000003
87.0,-0.0094190000000002
87.20000000000005,-0.0116140000000002
87.39999999999998,-0.0134610000000003
87.60000000000002,-0.0126220000000003
87.80000000000007,-0.0109950000000003
88.0,-0.0095500000000003
88.20000000000005,-0.0088250000000003
88.39999999999998,-0.0097230000000001
88.60000000000002,-0.0101900000000001
88.80000000000007,-0.0108910000000004
89.0,-0.0115940000000001
89.20000000000005,-0.0114270000000002
89.39999999999998,-0.010583
89.60000000000002,-0.0121270000000004
89.80000000000007,-0.0148480000000001
90.0,-0.0158940000000002
90.20000000000005,-0.0164900000000001
90.39999999999998,-0.015797
90.60000000000002,-0.0135460000000002
90.80000000000008,-0.0087330000000003
91.0,-0.0059400000000002
91.20000000000005,-0.0046940000000001
91.39999999999998,-0.0043390000000003
91.60000000000002,-0.0042510000000004
91.80000000000008,-0.0048340000000002
92.0,-0.0061720000000002
92.20000000000005,-0.0048450000000004
92.39999999999998,-0.00529
92.60000000000002,-0.0053470000000004
92.80000000000008,-0.0068240000000003
93.0,-0.007165
93.20000000000005,-0.009767
93.39999999999998,-0.009481
93.60000000000002,-0.010377
93.80000000000008,-0.0100110000000004
94.0,-0.0102830000000002
94.20000000000005,-0.0089360000000002
94.39999999999998,-0.010415
94.60000000000002,-0.0117530000000001
94.80000000000008,-0.0129130000000001
95.0,-0.0113600000000002
95.20000000000005,-0.0102170000000003
95.39999999999998,-0.0080460000000002
95.60000000000002,-0.0075480000000003
95.80000000000008,-0.0064610000000002
96.0,-0.0084490000000001
96.20000000000005,-0.0093390000000002
96.39999999999998,-0.0096180000000001
96.60000000000002,-0.0086300000000001
96.80000000000008,-0.0094890000000003
97.0,-0.0085480000000002
97.20000000000005,-0.0097180000000003
97.39999999999998,-0.0125410000000001
97.60000000000002,-0.015047
97.80000000000008,-0.016661
98.0,-0.0197330000000004
98.20000000000005,-0.0218450000000003
98.39999999999998,-0.0207970000000004
98.60000000000002,-0.0179770000000001
98.80000000000008,-0.0173450000000001
99.0,-0.0155040000000004
99.20000000000005,-0.0135800000000001
99.39999999999998,-0.0127830000000002
99.60000000000002,-0.015298
99.80000000000008,-0.0130610000000004
100.0,-0.0110150000000004
100.20000000000005,-0.010059
100.39999999999998,-0.0093330000000002
100.60000000000002,-0.007254
100.80000000000008,-0.0085350000000001
101.0,-0.0103110000000001
101.20000000000005,-0.0112660000000004
101.39999999999998,-0.0121000000000002
101.60000000000002,-0.0133210000000003
101.80000000000008,-0.0128590000000001
102.0,-0.0109080000000001
102.20000000000005,-0.0094010000000004
102.39999999999998,-0.0102030000000001
102.60000000000002,-0.0119790000000001
102.80000000000008,-0.014755
103.0,-0.0184220000000001
103.20000000000005,-0.0224300000000003
103.39999999999998,-0.0223140000000001
103.60000000000002,-0.0194650000000002
103.80000000000008,-0.0162870000000001
104.0,-0.0133460000000003
104.20000000000005,-0.0114360000000002
104.39999999999998,-0.012035
104.60000000000002,-0.0138380000000002
104.80000000000008,-0.0155720000000001
105.0,-0.0176930000000004
105.20000000000005,-0.0179560000000003
105.39999999999998,-0.0164550000000001
105.60000000000002,-0.0168250000000003
105.80000000000008,-0.0173650000000002
106.0,-0.0172690000000002
106.20000000000005,-0.0172370000000001
106.39999999999998,-0.0182680000000003
106.60000000000002,-0.0156820000000004
106.80000000000008,-0.012928
107.0,-0.0118930000000001
107.20000000000005,-0.011041
107.39999999999998,-0.0091890000000001
107.60000000000002,-0.009265
107.80000000000008,-0.0110160000000001
108.0,-0.0109840000000001
108.20000000000005,-0.0120730000000004
108.39999999999998,-0.014701
108.60000000000002,-0.0154100000000001
108.80000000000008,-0.0129810000000003
109.0,-0.0116900000000002
109.20000000000005,-0.0113210000000001
109.39999999999998,-0.0100140000000004
109.60000000000002,-0.010453
109.80000000000008,-0.0138090000000001
110.0,-0.0166270000000001
110.20000000000005,-0.016394
110.39999999999998,-0.0147790000000003
110.60000000000002,-0.0143710000000001
110.80000000000008,-0.0126620000000001
111.0,-0.0114450000000001
111.20000000000005,-0.0110770000000002
111.39999999999998,-0.011549
111.60000000000002,-0.0116750000000003
111.80000000000008,-0.0128700000000003
112.0,-0.0129200000000002
112.20000000000005,-0.0139910000000003
112.39999999999998,-0.0163220000000001
112.60000000000002,-0.0166170000000001
112.80000000000008,-0.0157540000000002
113.0,-0.0159990000000003
113.20000000000005,-0.0151730000000003
113.39999999999998,-0.0136150000000001
113.60000000000002,-0.0133040000000002
113.80000000000008,-0.0128810000000001
114.0,-0.0116960000000001
114.20000000000005,-0.009894
114.39999999999998,-0.0103650000000001
114.60000000000002,-0.009757
114.80000000000008,-0.0106640000000002
115.0,-0.0112360000000002
115.20000000000005,-0.013112
115.39999999999998,-0.0121170000000003
115.60000000000002,-0.0121840000000004
115.80000000000008,-0.0103190000000004
116.0,-0.0099070000000001
116.20000000000005,-0.0107650000000001
116.39999999999998,-0.0125630000000001
116.60000000000002,-0.0144410000000001
116.80000000000008,-0.0182320000000002
117.0,-0.0210750000000001
117.20000000000005,-0.0228730000000001
117.39999999999998,-0.023435
117.60000000000002,-0.0224470000000001
117.80000000000008,-0.0198980000000004
118.0,-0.0181370000000002
118.20000000000005,-0.0161140000000004
118.39999999999998,-0.0153760000000002
118.60000000000002,-0.0142540000000002
118.80000000000008,-0.0147290000000004
119.0,-0.0150910000000004
119.20000000000005,-0.0149210000000001
119.39999999999998,-0.0145680000000001
119.60000000000002,-0.0134670000000003
119.80000000000008,-0.0122340000000003
120.0,-0.0105150000000002
120.20000000000005,-0.0096030000000002
120.39999999999998,-0.0097200000000001
120.60000000000002,-0.0117700000000002
120.80000000000008,-0.012995
121.0,-0.0144760000000001
121.20000000000005,-0.0156330000000002
121.39999999999998,-0.0165320000000002
121.60000000000002,-0.017433
121.80000000000008,-0.0177990000000001
122.0,-0.0191700000000003
122.20000000000005,-0.0200790000000004
122.39999999999998,-0.019746
122.60000000000002,-0.0186110000000003
122.80000000000008,-0.0189570000000003
123.0,-0.0188320000000001
123.20000000000005,-0.017881
123.39999999999998,-0.01669
123.60000000000002,-0.0167920000000001
123.80000000000008,-0.0168910000000002
124.0,-0.0170080000000001
124.20000000000005,-0.0188550000000002
124.39999999999998,-0.0193090000000002
124.60000000000002,-0.0184430000000004
124.80000000000008,-0.0178320000000002
125.0,-0.0167490000000003
125.20000000000005,-0.01655
125.39999999999998,-0.0187730000000003
125.60000000000002,-0.0219180000000003
125.80000000000008,-0.02468
126.0,-0.0274700000000001
126.20000000000005,-0.0274100000000001
126.39999999999998,-0.0257870000000002
126.60000000000002,-0.0243870000000003
126.80000000000008,-0.022971
127.0,-0.0193530000000001
127.20000000000005,-0.017589
127.39999999999998,-0.0179270000000002
127.60000000000002,-0.017176
127.80000000000008,-0.0155560000000001
128.0,-0.0168990000000004
128.20000000000005,-0.0180800000000003
128.39999999999998,-0.0174700000000003
128.60000000000002,-0.0173810000000003
128.80000000000007,-0.014933
129.0,-0.0116260000000001
129.20000000000005,-0.0079870000000004
129.39999999999998,-0.0073060000000002
129.60000000000002,-0.0074660000000004
129.80000000000007,-0.0102740000000003
130.0,-0.0134940000000001
130.20000000000005,-0.0177010000000001
130.39999999999998,-0.02069
130.60000000000002,-0.0215120000000004
130.80000000000007,-0.0212340000000001
131.0,-0.0205050000000004
131.20000000000005,-0.0180760000000002
131.39999999999998,-0.014663
131.60000000000002,-0.015562
131.80000000000007,-0.0172050000000001
132.0,-0.0179940000000002
132.20000000000005,-0.0187660000000002
132.39999999999998,-0.0200960000000001
132.60000000000002,-0.0173450000000001
132.80000000000007,-0.0150350000000001
133.0,-0.013945
133.20000000000005,-0.0158090000000004
133.39999999999998,-0.0181650000000002
133.60000000000002,-0.022116
133.80000000000007,-0.0246900000000001
134.0,-0.026094
134.20000000000005,-0.024915
134.39999999999998,-0.0207050000000004
134.60000000000002,-0.0182770000000003
134.80000000000007,-0.017894
135.0,-0.018825
135.20000000000005,-0.018917
135.39999999999998,-0.0196750000000003
135.60000000000002,-0.0202520000000001
135.80000000000007,-0.0202570000000004
136.0,-0.0199630000000001
136.20000000000005,-0.0200500000000003
136.39999999999998,-0.0220760000000002
136.60000000000002,-0.022129
136.80000000000007,-0.0204970000000002
137.0,-0.017811
137.20000000000005,-0.0165110000000003
137.39999999999998,-0.0154780000000003
137.60000000000002,-0.0142280000000001
137.80000000000007,-0.0149630000000002
138.0,-0.0160530000000003
138.20000000000005,-0.0175750000000003
138.39999999999998,-0.0176170000000004
138.60000000000002,-0.018494
138.80000000000007,-0.0170500000000002
139.0,-0.015441
139.20000000000005,-0.0143920000000004
139.39999999999998,-0.014132
139.60000000000002,-0.0138930000000003
139.80000000000007,-0.0139060000000004
140.0,-0.0162680000000001
140.20000000000005,-0.0165520000000003
140.39999999999998,-0.0167550000000002
140.60000000000002,-0.016035
140.80000000000007,-0.01716
141.0,-0.0169260000000002
141.20000000000005,-0.0175430000000003
141.39999999999998,-0.0184700000000002
141.60000000000002,-0.0198630000000004
141.80000000000007,-0.0196810000000002
142.0,-0.0197790000000002
142.20000000000005,-0.0199900000000003
142.39999999999998,-0.0194900000000002
142.60000000000002,-0.020731
142.80000000000007,-0.0232310000000004
143.0,-0.0268740000000002
143.20000000000005,-0.029195
143.39999999999998,-0.0307760000000003
143.60000000000002,-0.0290380000000003
143.80000000000007,-0.0262290000000002
144.0,-0.021595
144.20000000000005,-0.01757
144.39999999999998,-0.0162360000000001
144.60000000000002,-0.0149310000000002
144.80000000000007,-0.013735
145.0,-0.0121480000000002
145.20000000000005,-0.0138260000000003
145.39999999999998,-0.013427
145.60000000000002,-0.0151890000000003
145.80000000000007,-0.017214
146.0,-0.0197960000000003
146.20000000000005,-0.0186400000000004
146.39999999999998,-0.0193080000000001
146.60000000000002,-0.0194010000000002
146.80000000000007,-0.0192550000000002
147.0,-0.0188510000000001
147.20000000000005,-0.0201680000000004
147.39999999999998,-0.0204730000000004
147.60000000000002,-0.0200740000000001
147.80000000000007,-0.0193850000000002
148.0,-0.0185440000000003
148.20000000000005,-0.0178450000000003
148.39999999999998,-0.0162360000000001
148.60000000000002,-0.01614
148.80000000000007,-0.0165830000000002
149.0,-0.0176400000000001
149.20000000000005,-0.0177580000000001
149.39999999999998,-0.0186220000000001
149.60000000000002,-0.018968
149.80000000000007,-0.0204010000000001
150.0,-0.0195100000000003
150.20000000000005,-0.017681
150.39999999999998,-0.0142220000000001
150.60000000000002,-0.0118980000000004
150.80000000000007,-0.009627
151.0,-0.0097560000000003
151.20000000000005,-0.01126
151.39999999999998,-0.0132500000000002
151.60000000000002,-0.0151230000000004
151.80000000000007,-0.0175970000000003
152.0,-0.0218760000000002
152.20000000000005,-0.025236
152.39999999999998,-0.0279250000000002
152.60000000000002,-0.0282590000000002
152.80000000000007,-0.0255670000000001
153.0,-0.0210160000000003
153.20000000000005,-0.0188080000000003
153.39999999999998,-0.0187080000000001
153.60000000000002,-0.019997
153.80000000000007,-0.0221690000000003
154.0,-0.0235280000000002
154.20000000000005,-0.0238950000000004
154.39999999999998,-0.0222680000000004
154.60000000000002,-0.0203120000000001
154.80000000000007,-0.0181920000000004
155.0,-0.0175720000000003
155.20000000000005,-0.0170300000000001
155.39999999999998,-0.0180840000000004
155.60000000000002,-0.0185110000000001
155.80000000000007,-0.020162
156.0,-0.0202310000000003
156.20000000000005,-0.0204520000000001
156.39999999999998,-0.0219440000000004
156.60000000000002,-0.0224990000000002
156.80000000000007,-0.0216510000000003
157.0,-0.0212450000000004
157.20000000000005,-0.0211530000000004
157.39999999999998,-0.019905
157.60000000000002,-0.0199770000000003
157.80000000000007,-0.018952
158.0,-0.018062
158.20000000000005,-0.0157610000000003
158.39999999999998,-0.0158770000000001
158.60000000000002,-0.0144680000000003
158.80000000000007,-0.0167250000000001
159.0,-0.0180330000000004
159.20000000000005,-0.0200960000000001
159.39999999999998,-0.0201000000000002
159.60000000000002,-0.0216010000000004
159.80000000000007,-0.021433
160.0,-0.0221850000000003
160.20000000000005,-0.0229920000000003
160.39999999999998,-0.0236140000000002
160.60000000000002,-0.0228390000000002
160.80000000000007,-0.0222980000000001
161.0,-0.0208720000000002
161.20000000000005,-0.0199550000000003
161.39999999999998,-0.0198310000000003
161.60000000000002,-0.0195730000000002
161.80000000000007,-0.0187970000000001
162.0,-0.0180170000000003
162.20000000000005,-0.0164540000000004
162.39999999999998,-0.0128630000000002
162.60000000000002,-0.0133130000000001
162.80000000000007,-0.0146350000000001
163.0,-0.0180600000000001
163.20000000000005,-0.0200900000000001
163.39999999999998,-0.0221520000000001
163.60000000000002,-0.0220290000000003
163.80000000000007,-0.0197730000000002
164.0,-0.0185600000000003
164.20000000000005,-0.0175270000000002
164.39999999999998,-0.0178530000000001
164.60000000000002,-0.0194360000000002
164.80000000000007,-0.0228900000000003
165.0,-0.0237250000000002
165.20000000000005,-0.0245380000000001
165.39999999999998,-0.025128
165.60000000000002,-0.0234170000000002
165.80000000000007,-0.0220540000000002
166.0,-0.0206540000000003
166.20000000000005,-0.0201630000000001
166.39999999999998,-0.0201680000000004
166.60000000000002,-0.0218710000000004
166.80000000000007,-0.020496
167.0,-0.0184840000000003
167.20000000000005,-0.017643
167.39999999999998,-0.0154640000000001
167.60000000000002,-0.0153450000000003
167.80000000000007,-0.0193340000000001
168.0,-0.024159
168.20000000000005,-0.025392
168.39999999999998,-0.0263580000000001
168.60000000000002,-0.0249080000000003
168.80000000000007,-0.023212
169.0,-0.02095
169.20000000000005,-0.0215420000000001
169.39999999999998,-0.0239000000000002
169.60000000000002,-0.0264410000000001
169.80000000000007,-0.0285350000000002
170.0,-0.0319290000000003
170.20000000000005,-0.0334190000000003
170.39999999999998,-0.034078
170.60000000000002,-0.0343840000000001
170.80000000000007,-0.0338210000000001
171.0,-0.0322970000000002
171.20000000000005,-0.0304710000000003
171.39999999999998,-0.0293340000000004
171.60000000000002,-0.0279370000000001
171.80000000000007,-0.0271910000000001
172.0,-0.0277580000000003
172.20000000000005,-0.02977
172.39999999999998,-0.0298790000000002
172.60000000000002,-0.0297830000000001
172.80000000000007,-0.0293670000000001
173.0,-0.0285510000000002
173.20000000000005,-0.0262470000000001
173.39999999999998,-0.025738
173.60000000000002,-0.025087
173.80000000000007,-0.0234120000000004
174.0,-0.0210410000000003
174.20000000000005,-0.020391
174.39999999999998,-0.0198120000000003
174.60000000000002,-0.0219060000000004
174.80000000000007,-0.023959
175.0,-0.0242880000000003
175.20000000000005,-0.024798
175.39999999999998,-0.0269030000000003
175.60000000000002,-0.02611
175.80000000000007,-0.0243990000000002
176.0,-0.024461
176.20000000000005,-0.0254120000000002
176.39999999999998,-0.0268180000000004
176.60000000000002,-0.0282810000000002
176.80000000000007,-0.0289680000000003
177.0,-0.028664
177.20000000000005,-0.028156
177.39999999999998,-0.0265810000000001
177.60000000000002,-0.0257820000000004
177.80000000000007,-0.0255070000000001
178.0,-0.0252620000000001
178.20000000000005,-0.0257440000000004
178.39999999999998,-0.0246320000000004
178.60000000000002,-0.024032
178.80000000000007,-0.0265950000000003
179.0,-0.0282240000000002
179.20000000000005,-0.0281550000000003
179.39999999999998,-0.0280680000000002
179.60000000000002,-0.0281220000000002
179.80000000000007,-0.027101
180.0,-0.0269240000000001
180.20000000000005,-0.0255290000000001
180.4,-0.0245700000000002
180.6,-0.0231480000000003
180.80000000000007,-0.0218890000000002
181.0,-0.0211910000000004
181.20000000000005,-0.0218420000000003
181.4,-0.0224760000000001
181.6,-0.0232300000000003
181.80000000000007,-0.0230260000000002
182.0,-0.0248050000000001
182.20000000000005,-0.0268550000000002
182.4,-0.0283320000000002
182.6,-0.0280360000000001
182.80000000000007,-0.028067
183.0,-0.0262660000000001
183.20000000000005,-0.0241520000000003
183.4,-0.0227220000000003
183.6,-0.0225410000000003
183.80000000000007,-0.0224110000000004
184.0,-0.0230590000000003
184.20000000000005,-0.0232830000000001
184.4,-0.0233180000000001
184.6,-0.0246490000000001
184.80000000000007,-0.028683
185.0,-0.0323630000000001
185.20000000000005,-0.0348040000000002
185.4,-0.0384950000000001
185.6,-0.039368
185.80000000000007,-0.0372410000000003
186.0,-0.033239
186.20000000000005,-0.0295310000000004
186.4,-0.0241450000000003
186.6,-0.0218290000000003
186.80000000000007,-0.021541
187.0,-0.0226540000000001
187.20000000000005,-0.023962
187.4,-0.0271180000000001
187.6,-0.0283300000000004
187.80000000000007,-0.0259440000000004
188.0,-0.0232520000000002
188.20000000000005,-0.0225590000000002
188.4,-0.0212400000000001
188.6,-0.022539
188.80000000000007,-0.024998
189.0,-0.0282590000000002
189.20000000000005,-0.0302030000000002
189.4,-0.0300360000000003
189.6,-0.0272190000000001
189.80000000000007,-0.0254790000000002
190.0,-0.024998
190.20000000000005,-0.025503
190.4,-0.0257680000000002
190.6,-0.026043
190.80000000000007,-0.0258930000000003
191.0,-0.02421
191.20000000000005,-0.0222680000000004
191.4,-0.0226830000000002
191.6,-0.025398
191.80000000000007,-0.0283270000000004
192.0,-0.0299120000000003
192.20000000000005,-0.0316620000000003
192.4,-0.0333160000000001
192.6,-0.031765
192.80000000000007,-0.0307180000000002
193.0,-0.0305490000000001
193.20000000000005,-0.0288830000000004
193.4,-0.0266070000000002
193.6,-0.0255130000000001
193.80000000000007,-0.0244750000000002
194.0,-0.0243930000000003
194.20000000000005,-0.0264760000000001
194.4,-0.0267330000000001
194.6,-0.0278520000000002
194.80000000000007,-0.0282820000000003
195.0,-0.0270570000000001
195.20000000000005,-0.0234
195.4,-0.022666
195.6,-0.022342
195.80000000000007,-0.0229530000000002
196.0,-0.0242440000000003
196.20000000000005,-0.027695
196.4,-0.0278770000000001
196.6,-0.0279180000000001
196.80000000000007,-0.0276280000000004
197.0,-0.0276610000000001
197.20000000000005,-0.026361
197.4,-0.0268260000000002
197.6,-0.0269810000000001
197.80000000000007,-0.0274670000000001
198.0,-0.0267440000000003
198.20000000000005,-0.0262200000000003
198.4,-0.024321
198.6,-0.0236500000000003
198.80000000000007,-0.0210760000000003
199.0,-0.0210610000000004
199.20000000000005,-0.0209750000000004
199.4,-0.0242590000000002
199.6,-0.0252080000000001
199.80000000000007,-0.0281440000000001
200.0,-0.0296760000000002
200.20000000000005,-0.0311920000000003
200.4,-0.029951
200.6,-0.0282240000000002
200.80000000000007,-0.0265760000000003
201.0,-0.0256120000000001
201.20000000000005,-0.024512
201.4,-0.0232130000000001
201.6,-0.0224960000000002
201.80000000000007,-0.0233440000000002
202.0,-0.026504
202.20000000000005,-0.0291710000000002
202.4,-0.0328240000000001
202.6,-0.035692
202.80000000000007,-0.03607
203.0,-0.0328720000000002
203.20000000000005,-0.0302270000000004
203.4,-0.0272970000000003
203.6,-0.0251180000000004
203.80000000000007,-0.023638
204.0,-0.0240680000000002
204.20000000000005,-0.0251800000000002
204.4,-0.0265330000000001
204.6,-0.0292790000000002
204.80000000000007,-0.03146
205.0,-0.0328730000000003
205.20000000000005,-0.0334980000000002
205.4,-0.0348100000000002
205.6,-0.0332290000000004
205.80000000000007,-0.0316830000000001
206.0,-0.0293050000000003
206.20000000000005,-0.028121
206.4,-0.0261790000000003
206.6,-0.0259360000000001
206.80000000000007,-0.0258260000000003
207.0,-0.0268110000000003
207.20000000000005,-0.0266290000000002
207.4,-0.0270130000000001
207.6,-0.0286880000000002
207.80000000000007,-0.0307880000000002
208.0,-0.0320600000000004
208.20000000000005,-0.0327300000000003
208.4,-0.033268
208.6,-0.0332400000000001
208.80000000000007,-0.0316340000000003
209.0,-0.0316
209.20000000000005,-0.0318980000000004
209.4,-0.0325280000000001
209.6,-0.0346260000000002
209.80000000000007,-0.0374830000000003
210.0,-0.0389240000000001
210.20000000000005,-0.0411270000000003
210.4,-0.0437740000000004
210.6,-0.0436490000000002
210.80000000000007,-0.0403760000000001
211.0,-0.0369370000000004
211.20000000000005,-0.0343350000000004
211.4,-0.031708
211.6,-0.0295880000000003
211.80000000000007,-0.0308860000000001
212.0,-0.0313760000000002
212.20000000000005,-0.0307030000000003
212.4,-0.0290560000000001
212.6,-0.028286
212.80000000000007,-0.0276270000000002
213.0,-0.0284440000000003
213.20000000000005,-0.0283420000000003
213.4,-0.028083
213.6,-0.0273660000000002
213.80000000000007,-0.0262810000000004
214.0,-0.024731
214.20000000000005,-0.0247450000000002
214.4,-0.0249770000000002
214.6,-0.0255290000000001
214.80000000000007,-0.0274560000000003
215.0,-0.0304710000000003
215.20000000000005,-0.033884
215.4,-0.0354160000000001
215.6,-0.0347080000000001
215.80000000000007,-0.0342190000000002
216.0,-0.0336290000000003
216.20000000000005,-0.0323040000000003
216.4,-0.0313190000000003
216.6,-0.032985
216.80000000000007,-0.0323860000000002
217.0,-0.0323990000000002
217.20000000000005,-0.0328410000000003
217.4,-0.0344600000000001
217.6,-0.0350030000000001
217.80000000000007,-0.0353590000000001
218.0,-0.0342710000000003
218.20000000000005,-0.034151
218.4,-0.0328140000000001
218.6,-0.0334570000000002
218.80000000000007,-0.0352010000000002
219.0,-0.0360340000000003
219.20000000000005,-0.033598
219.4,-0.032874
219.6,-0.0313960000000004
219.80000000000007,-0.0303280000000003
220.0,-0.0295910000000003
220.20000000000005,-0.0316960000000001
220.4,-0.0341820000000003
220.6,-0.034329
220.80000000000007,-0.0331230000000002
221.0,-0.0336600000000002
221.20000000000005,-0.0336250000000002
221.4,-0.0319880000000001
221.6,-0.0323070000000003
221.80000000000007,-0.034901
222.0,-0.0351420000000004
222.20000000000005,-0.0325320000000002
222.4,-0.0323800000000003
222.6,-0.0330440000000002
222.80000000000007,-0.0335420000000001
223.0,-0.0324650000000001
223.20000000000005,-0.0327070000000002
223.4,-0.0317210000000001
223.6,-0.0285930000000003
223.80000000000007,-0.0255360000000002
224.0,-0.0264890000000002
224.20000000000005,-0.0281500000000001
224.4,-0.0283860000000002
224.6,-0.0284300000000001
224.80000000000007,-0.0288080000000001
225.0,-0.0287990000000002
225.20000000000005,-0.0292920000000003
225.4,-0.0303910000000002
225.6,-0.0320070000000001
225.80000000000007,-0.0325770000000003
226.0,-0.0337360000000002
226.20000000000005,-0.0342840000000004
226.4,-0.0335930000000002
226.6,-0.0332960000000004
226.80000000000007,-0.0318840000000002
227.0,-0.030396
227.20000000000005,-0.028753
227.4,-0.02807
227.6,-0.02678
227.80000000000007,-0.0258990000000003
228.0,-0.0259690000000003
228.20000000000005,-0.0274360000000002
228.4,-0.0287080000000004
228.6,-0.0302000000000002
228.80000000000007,-0.0313470000000002
229.0,-0.0316910000000003
229.20000000000005,-0.0321030000000002
229.4,-0.0318120000000003
229.6,-0.03139
229.80000000000007,-0.0328910000000002
230.0,-0.0339500000000003
230.20000000000005,-0.0335050000000003
230.4,-0.0336930000000004
230.6,-0.0354050000000003
230.80000000000007,-0.0362530000000003
231.0,-0.0351410000000003
231.20000000000005,-0.0323440000000001
231.4,-0.030809
231.6,-0.028871
231.80000000000007,-0.0284520000000001
232.0,-0.027749
232.20000000000005,-0.0298540000000002
232.4,-0.0309990000000004
232.6,-0.0321860000000002
232.80000000000007,-0.0307080000000001
233.0,-0.0266710000000003
233.20000000000005,-0.023892
233.4,-0.0237390000000004
233.6,-0.025382
233.80000000000007,-0.0256340000000001
234.0,-0.0293420000000002
234.20000000000005,-0.0306600000000001
234.4,-0.0314160000000001
234.6,-0.0314970000000003
234.80000000000007,-0.0336570000000002
235.0,-0.03607
235.20000000000005,-0.0392920000000001
235.4,-0.0404240000000002
235.6,-0.0402180000000003
235.80000000000007,-0.0397280000000002
236.0,-0.039644
236.20000000000005,-0.0383330000000001
236.4,-0.0359290000000003
236.6,-0.0343010000000001
236.80000000000007,-0.0337810000000002
237.0,-0.0343570000000004
237.20000000000005,-0.0352620000000003
237.4,-0.0360650000000002
237.6,-0.0355730000000003
237.80000000000007,-0.0340540000000002
238.0,-0.0328540000000003
238.20000000000005,-0.0318680000000002
238.4,-0.0340710000000004
238.6,-0.036575
238.80000000000007,-0.0372480000000003
239.0,-0.0361220000000002
239.20000000000005,-0.0360440000000004
239.4,-0.036785
239.6,-0.0363450000000002
239.80000000000007,-0.035419
240.0,-0.0340850000000001
240.20000000000005,-0.0317210000000001
240.4,-0.0283300000000004
240.6,-0.0255280000000004
240.80000000000007,-0.0273950000000002
241.0,-0.030755
241.20000000000005,-0.0359310000000001
241.4,-0.0390650000000003
241.6,-0.0412320000000003
241.80000000000007,-0.0407540000000001
242.0,-0.037808
242.20000000000005,-0.034513
242.4,-0.0327440000000001
242.6,-0.0323500000000001
242.80000000000007,-0.031676
243.0,-0.0309810000000001
243.20000000000005,-0.0301820000000003
243.4,-0.029951
243.6,-0.0304760000000001
243.80000000000007,-0.0309880000000002
244.0,-0.0331380000000001
244.20000000000005,-0.0349210000000002
244.4,-0.0348640000000002
244.6,-0.0323480000000002
244.80000000000007,-0.0306670000000002
245.0,-0.0317560000000001
245.20000000000005,-0.0328250000000003
245.4,-0.0359540000000002
245.6,-0.0384390000000003
245.80000000000007,-0.0404060000000003
246.0,-0.0396610000000001
246.20000000000005,-0.0378000000000002
246.4,-0.0348260000000002
246.6,-0.0333610000000001
246.80000000000007,-0.0329800000000002
247.0,-0.032982
247.20000000000005,-0.0331140000000003
247.4,-0.0346130000000002
247.6,-0.035895
247.80000000000007,-0.035384
248.0,-0.0332690000000002
248.20000000000005,-0.0329840000000003
248.4,-0.0319920000000002
248.6,-0.0328650000000001
248.80000000000007,-0.035104
249.0,-0.03865
249.20000000000005,-0.0405140000000003
249.4,-0.0419590000000003
249.6,-0.0436910000000003
249.80000000000007,-0.0433060000000002
250.0,-0.041544
250.20000000000005,-0.03994
250.4,-0.0391250000000003
250.6,-0.0369050000000004
250.80000000000007,-0.0359690000000001
251.0,-0.0376550000000004
251.20000000000005,-0.0388450000000002
251.4,-0.0374480000000003
251.6,-0.0368160000000004
251.80000000000007,-0.0384870000000003
252.0,-0.0370290000000004
252.20000000000005,-0.0366150000000002
252.4,-0.0369040000000002
252.6,-0.0360940000000002
252.80000000000007,-0.0334880000000001
253.0,-0.0332160000000003
253.20000000000005,-0.0323900000000003
253.4,-0.0336190000000002
253.6,-0.0357380000000002
253.80000000000007,-0.0368320000000004
254.0,-0.036305
254.20000000000005,-0.0377560000000003
254.4,-0.037449
254.6,-0.0379720000000003
254.80000000000007,-0.0380880000000001
255.0,-0.0383010000000001
255.20000000000005,-0.0357600000000002
255.4,-0.035565
255.6,-0.034418
255.80000000000007,-0.0354700000000001
256.0,-0.0355740000000004
256.20000000000005,-0.0361640000000003
256.4,-0.0349100000000004
256.6,-0.0339070000000001
256.80000000000007,-0.0319170000000004
257.0,-0.0321410000000002
257.20000000000005,-0.034002
257.4,-0.0371210000000004
257.6,-0.038119
257.80000000000007,-0.0382150000000001
258.0,-0.0358780000000003
258.20000000000005,-0.0326620000000001
258.4,-0.0274490000000002
258.6,-0.0236110000000002
258.80000000000007,-0.0217790000000004
259.0,-0.0235180000000001
259.20000000000005,-0.0255960000000001
259.4,-0.0285300000000003
259.6,-0.0324730000000004
259.80000000000007,-0.0361310000000001
260.0,-0.0372980000000002
260.20000000000005,-0.0378700000000002
260.4,-0.0372280000000002
260.6,-0.0363110000000004
260.80000000000007,-0.0359550000000004
261.0,-0.0378210000000001
261.20000000000005,-0.0381170000000001
261.4,-0.0395210000000001
261.6,-0.0407030000000001
261.80000000000007,-0.0412280000000002
262.0,-0.0396310000000004
262.20000000000005,-0.039965
262.4,-0.0408880000000002
262.6,-0.040591
262.80000000000007,-0.0382570000000002
263.0,-0.0351190000000003
263.20000000000005,-0.0320300000000002
263.4,-0.0284660000000003
263.6,-0.0267920000000003
263.80000000000007,-0.0271770000000004
264.0,-0.0294640000000003
264.20000000000005,-0.0301470000000003
264.4,-0.0290840000000001
264.6,-0.029373
264.80000000000007,-0.0291970000000003
265.0,-0.0299530000000003
265.20000000000005,-0.0313860000000003
265.4,-0.0355180000000001
265.6,-0.0367380000000001
265.80000000000007,-0.0382700000000002
266.0,-0.0400080000000002
266.20000000000005,-0.0414810000000001
266.4,-0.039533
266.6,-0.0383310000000003
266.80000000000007,-0.0373210000000003
267.0,-0.0340890000000002
267.20000000000005,-0.0312710000000002
267.4,-0.0312640000000001
267.6,-0.033147
267.80000000000007,-0.0342190000000002
268.0,-0.0345010000000001
268.20000000000005,-0.0360620000000002
268.4,-0.0372340000000002
268.6,-0.0376630000000002
268.80000000000007,-0.03689
269.0,-0.036324
269.20000000000005,-0.0348030000000001
269.4,-0.0334930000000004
269.6,-0.0316460000000002
269.80000000000007,-0.0317890000000002
270.0,-0.034459
270.20000000000005,-0.0375310000000004
270.4,-0.0395720000000001
270.6,-0.0393290000000003
270.80000000000007,-0.0381930000000001
271.0,-0.0370890000000003
271.20000000000005,-0.0359880000000001
271.4,-0.0354510000000001
271.6,-0.0382320000000002
271.80000000000007,-0.0406350000000004
272.0,-0.0408570000000003
272.20000000000005,-0.0409480000000002
272.4,-0.041042
272.6,-0.0398800000000001
272.80000000000007,-0.0397500000000001
273.0,-0.0409060000000001
273.20000000000005,-0.0421680000000002
273.4,-0.0433410000000002
273.6,-0.04176
273.80000000000007,-0.0388490000000003
274.0,-0.0370490000000001
274.20000000000005,-0.0357310000000001
274.4,-0.0330150000000002
274.6,-0.0320140000000002
274.80000000000007,-0.0333800000000001
275.0,-0.0335110000000002
275.20000000000005,-0.033487
275.4,-0.0345270000000001
275.6,-0.0353600000000002
275.80000000000007,-0.0333690000000004
276.0,-0.0318550000000001
276.20000000000005,-0.0310670000000001
276.4,-0.0305150000000002
276.6,-0.0313890000000003
276.80000000000007,-0.0344010000000003
277.0,-0.0375860000000001
277.20000000000005,-0.0392020000000004
277.4,-0.0409210000000004
277.6,-0.0425950000000003
277.80000000000007,-0.0420660000000001
278.0,-0.0401850000000001
278.20000000000005,-0.0391990000000004
278.4,-0.0393500000000002
278.6,-0.0395800000000003
278.80000000000007,-0.0404970000000002
279.0,-0.0419400000000003
279.20000000000005,-0.0429590000000001
279.4,-0.0444950000000003
279.6,-0.044934
279.80000000000007,-0.0464080000000004
280.0,-0.0473400000000001
280.20000000000005,-0.047384
280.4,-0.0455740000000002
280.6,-0.0449670000000002
280.80000000000007,-0.0458550000000004
281.0,-0.0465270000000002
281.20000000000005,-0.047638
281.4,-0.047384
281.6,-0.0459090000000004
281.80000000000007,-0.0421780000000002
282.0,-0.039374
282.20000000000005,-0.0372090000000002
282.4,-0.0373050000000003
282.6,-0.0369890000000001
282.80000000000007,-0.0356770000000001
283.0,-0.0349080000000001
283.20000000000005,-0.0352810000000003
283.4,-0.0325870000000003
283.6,-0.0309130000000004
283.80000000000007,-0.0322090000000003
284.0,-0.0342230000000003
284.20000000000005,-0.0346610000000002
284.4,-0.0354020000000003
284.6,-0.036496
284.80000000000007,-0.035949
285.0,-0.03505
285.20000000000005,-0.0333340000000004
285.4,-0.0343120000000003
285.6,-0.0335940000000003
285.80000000000007,-0.033087
286.0,-0.0305730000000004
286.20000000000005,-0.0293770000000002
286.4,-0.0306860000000002
286.6,-0.033589
286.80000000000007,-0.037042
287.0,-0.039031
287.20000000000005,-0.0400050000000002
287.4,-0.036712
287.6,-0.0340070000000003
287.80000000000007,-0.0322530000000003
288.0,-0.0317660000000001
288.20000000000005,-0.0326810000000001
288.4,-0.0324930000000001
288.6,-0.0320080000000002
288.80000000000007,-0.0308390000000002
289.0,-0.0314480000000001
289.20000000000005,-0.0305270000000001
289.4,-0.0311890000000003
289.6,-0.0331840000000003
289.80000000000007,-0.0349790000000003
290.0,-0.0377430000000003
290.20000000000005,-0.0402560000000002
290.4,-0.0424740000000003
290.6,-0.0417840000000002
290.80000000000007,-0.0409970000000003
291.0,-0.039196
291.20000000000005,-0.038834
291.4,-0.0388930000000002
291.6,-0.0392970000000003
291.80000000000007,-0.0383590000000002
292.0,-0.0360790000000004
292.20000000000005,-0.0351310000000002
292.4,-0.0356010000000002
292.6,-0.0374440000000002
292.80000000000007,-0.0398670000000001
293.0,-0.0436590000000003
293.20000000000005,-0.0432910000000004
293.4,-0.0403350000000002
293.6,-0.0373100000000001
293.80000000000007,-0.0351030000000003
294.0,-0.0348170000000003
294.20000000000005,-0.0356610000000001
294.4,-0.0377790000000004
294.6,-0.0382570000000002
294.80000000000007,-0.0389110000000001
295.0,-0.0357250000000002
295.20000000000005,-0.033808
295.4,-0.0338760000000002
295.6,-0.034898
295.80000000000007,-0.03539
296.0,-0.0365200000000003
296.20000000000005,-0.039241
296.4,-0.039616
296.6,-0.0400260000000001
296.80000000000007,-0.0392940000000003
297.0,-0.0400960000000001
297.20000000000005,-0.0386780000000004
297.4,-0.0374070000000004
297.6,-0.0356470000000004
297.80000000000007,-0.0335580000000002
298.0,-0.0324240000000002
298.20000000000005,-0.0332280000000002
298.4,-0.034656
298.6,-0.0360910000000003
298.80000000000007,-0.0400970000000002
299.0,-0.0430020000000004
299.20000000000005,-0.0428320000000002
299.4,-0.0414380000000003
299.5999999999999,-0.0401090000000006
299.79999999999995,-0.0404770000000005
299.9999999999999,-0.0409650000000003
300.19999999999993,-0.0419040000000006
300.4,-0.0414010000000004
300.5999999999999,-0.0419030000000004
300.79999999999995,-0.0425670000000004
300.9999999999999,-0.0425480000000004
301.19999999999993,-0.0430740000000007
301.4,-0.0430850000000004
301.5999999999999,-0.0435400000000005
301.79999999999995,-0.0425740000000005
301.9999999999999,-0.0423120000000003
302.19999999999993,-0.0403430000000004
302.4,-0.0393570000000003
302.5999999999999,-0.0372210000000006
302.79999999999995,-0.0352200000000006
302.9999999999999,-0.0329480000000006
303.19999999999993,-0.0342210000000005
303.4,-0.0362290000000005
303.5999999999999,-0.0389040000000004
303.79999999999995,-0.0401800000000003
303.9999999999999,-0.0425230000000005
304.19999999999993,-0.0419510000000005
304.4,-0.0399700000000002
304.5999999999999,-0.0368130000000004
304.79999999999995,-0.0364650000000006
304.9999999999999,-0.0354880000000004
305.19999999999993,-0.0360550000000006
305.4,-0.0357740000000004
305.5999999999999,-0.0373290000000006
305.79999999999995,-0.0375790000000004
305.9999999999999,-0.0383000000000004
306.19999999999993,-0.0380160000000007
306.4,-0.0385650000000006
306.5999999999999,-0.0373310000000004
306.79999999999995,-0.0361150000000005
306.9999999999999,-0.0338650000000004
307.19999999999993,-0.0339450000000005
307.4,-0.0325710000000003
307.5999999999999,-0.0329640000000006
307.79999999999995,-0.0338490000000004
307.9999999999999,-0.0348280000000005
308.19999999999993,-0.0340200000000003
308.4,-0.0351810000000005
308.5999999999999,-0.0369620000000003
308.79999999999995,-0.0385690000000003
308.9999999999999,-0.0401860000000007
309.19999999999993,-0.0423280000000003
309.4,-0.0458680000000004
309.5999999999999,-0.0485290000000007
309.79999999999995,-0.0501720000000003
309.9999999999999,-0.0520620000000007
310.19999999999993,-0.0511460000000005
310.4,-0.0471170000000005
310.5999999999999,-0.0408880000000007
310.79999999999995,-0.0358240000000003
310.9999999999999,-0.0313640000000003
311.19999999999993,-0.0284610000000005
311.4,-0.0290000000000003
311.5999999999999,-0.0336750000000005
311.79999999999995,-0.0367170000000003
311.9999999999999,-0.0389280000000002
312.19999999999993,-0.0416670000000003
312.4,-0.0415070000000006
312.5999999999999,-0.0396970000000003
312.79999999999995,-0.0389980000000003
312.9999999999999,-0.0392170000000007
313.19999999999993,-0.0384330000000003
313.4,-0.0385860000000004
313.5999999999999,-0.0371030000000005
313.79999999999995,-0.0364670000000004
313.9999999999999,-0.0354640000000006
314.19999999999993,-0.0364670000000004
314.4,-0.0365810000000004
314.5999999999999,-0.0385540000000004
314.79999999999995,-0.0373910000000003
314.9999999999999,-0.0354260000000006
315.19999999999993,-0.0334000000000003
315.4,-0.0333750000000003
315.5999999999999,-0.0314570000000005
315.79999999999995,-0.0324970000000006
315.9999999999999,-0.0343740000000005
316.19999999999993,-0.0345220000000003
316.4,-0.0332100000000004
316.5999999999999,-0.0323630000000005
316.79999999999995,-0.0319520000000004
316.9999999999999,-0.0322560000000002
317.19999999999993,-0.0327170000000003
317.4,-0.0339120000000003
317.5999999999999,-0.0345690000000002
317.79999999999995,-0.0342800000000003
317.9999999999999,-0.0325660000000005
318.19999999999993,-0.0325120000000005
318.4,-0.0333410000000005
318.5999999999999,-0.0360190000000004
318.79999999999995,-0.0385700000000004
318.9999999999999,-0.0412010000000004
319.19999999999993,-0.0406520000000005
319.4,-0.0396710000000006
319.5999999999999,-0.0379560000000003
319.79999999999995,-0.0361350000000006
319.9999999999999,-0.0332570000000003
320.19999999999993,-0.0330520000000005
320.4,-0.0320550000000006
320.5999999999999,-0.0304760000000006
320.79999999999995,-0.0301090000000003
320.9999999999999,-0.0314700000000005
321.19999999999993,-0.0314600000000004
321.4,-0.0328530000000006
321.5999999999999,-0.0354340000000004
321.79999999999995,-0.0370750000000006
321.9999999999999,-0.0364930000000005
322.19999999999993,-0.0368030000000003
322.4,-0.0364230000000005
322.5999999999999,-0.0348200000000002
322.79999999999995,-0.0334240000000005
322.9999999999999,-0.0336380000000007
323.19999999999993,-0.0346810000000004
323.4,-0.0344690000000005
323.5999999999999,-0.0340580000000003
323.79999999999995,-0.0333730000000005
323.9999999999999,-0.0350380000000005
324.19999999999993,-0.0335020000000003
324.4,-0.0329660000000004
324.5999999999999,-0.0338110000000004
324.79999999999995,-0.0355490000000005
324.9999999999999,-0.0342510000000007
325.19999999999993,-0.0347340000000007
325.4,-0.0339870000000006
325.5999999999999,-0.0331460000000003
325.79999999999995,-0.0317980000000006
325.9999999999999,-0.0314650000000003
326.19999999999993,-0.0325760000000006
326.4,-0.0366190000000004
326.5999999999999,-0.0381060000000004
326.79999999999995,-0.0384760000000006
326.9999999999999,-0.0391060000000003
327.19999999999993,-0.0380730000000006
327.4,-0.0338180000000005
327.5999999999999,-0.0311290000000004
327.79999999999995,-0.0301760000000004
327.9999999999999,-0.0294200000000004
328.19999999999993,-0.0301210000000002
328.4,-0.0307680000000005
328.5999999999999,-0.0310530000000004
328.79999999999995,-0.0306860000000006
328.9999999999999,-0.0294430000000005
329.19999999999993,-0.0274620000000003
329.4,-0.0274250000000004
329.5999999999999,-0.0290990000000004
329.79999999999995,-0.0290710000000005
329.9999999999999,-0.0305460000000006
330.19999999999993,-0.0336070000000003
330.4,-0.0372500000000006
330.5999999999999,-0.0390070000000006
330.79999999999995,-0.0405560000000004
330.9999999999999,-0.0400470000000003
331.19999999999993,-0.0381050000000007
331.4,-0.0341310000000003
331.5999999999999,-0.0291810000000003
331.79999999999995,-0.0256050000000005
331.9999999999999,-0.0245590000000004
332.19999999999993,-0.0256390000000004
332.4,-0.0275110000000005
332.5999999999999,-0.0308030000000005
332.79999999999995,-0.0338630000000006
332.9999999999999,-0.0350390000000007
333.19999999999993,-0.0345080000000006
333.4,-0.0337640000000005
333.5999999999999,-0.0317060000000006
333.79999999999995,-0.0314480000000005
333.9999999999999,-0.0322880000000003
334.19999999999993,-0.0319670000000003
334.4,-0.0322940000000007
334.5999999999999,-0.0340630000000006
334.79999999999995,-0.0320360000000006
334.9999999999999,-0.0281120000000005
335.19999999999993,-0.0264640000000007
335.4,-0.0232610000000006
335.5999999999999,-0.0217800000000005
335.79999999999995,-0.0262660000000005
335.9999999999999,-0.0338400000000005
336.19999999999993,-0.0407060000000005
336.4,-0.0457170000000006
336.5999999999999,-0.0475030000000002
336.79999999999995,-0.0453750000000003
336.9999999999999,-0.0422030000000006
337.19999999999993,-0.0381900000000006
337.4,-0.0367360000000003
337.5999999999999,-0.0346140000000003
337.79999999999995,-0.0320430000000007
337.9999999999999,-0.0296140000000004
338.19999999999993,-0.0284450000000004
338.4,-0.0280340000000003
338.5999999999999,-0.0301980000000003
338.79999999999995,-0.0327830000000006
338.9999999999999,-0.0348080000000003
339.19999999999993,-0.0350340000000004
339.4,-0.0338820000000006
339.5999999999999,-0.0329570000000005
339.79999999999995,-0.0314850000000004
339.9999999999999,-0.0311540000000003
340.19999999999993,-0.0314410000000004
340.4,-0.0317090000000006
340.5999999999999,-0.0325570000000006
340.79999999999995,-0.0359920000000006
340.9999999999999,-0.0369850000000004
341.19999999999993,-0.0376010000000004
341.4,-0.0373310000000004
341.5999999999999,-0.0360720000000003
341.79999999999995,-0.0344640000000007
341.9999999999999,-0.0348180000000004
342.19999999999993,-0.0338030000000006
342.4,-0.0348560000000004
342.5999999999999,-0.0355540000000003
342.79999999999995,-0.0346810000000004
342.9999999999999,-0.0329110000000003
343.19999999999993,-0.0326780000000006
343.4,-0.0329040000000007
343.5999999999999,-0.0326390000000005
343.79999999999995,-0.0348370000000004
343.9999999999999,-0.0342640000000002
344.19999999999993,-0.0341680000000006
344.4,-0.0336460000000005
344.5999999999999,-0.0341460000000006
344.79999999999995,-0.0315310000000006
344.9999999999999,-0.0321460000000004
345.19999999999993,-0.0335770000000006
345.4,-0.0342970000000004
345.5999999999999,-0.0355610000000004
345.79999999999995,-0.0356990000000005
345.9999999999999,-0.0355760000000007
346.19999999999993,-0.0341080000000006
346.4,-0.0338590000000005
346.5999999999999,-0.0322140000000006
346.79999999999995,-0.0343860000000004
346.9999999999999,-0.0355500000000006
347.19999999999993,-0.0340630000000006
347.4,-0.0311040000000004
347.5999999999999,-0.0313100000000003
347.79999999999995,-0.0292500000000006
347.9999999999999,-0.0266470000000005
348.19999999999993,-0.0279930000000003
348.4,-0.0308420000000007
348.5999999999999,-0.0327020000000004
348.79999999999995,-0.0341940000000007
348.9999999999999,-0.0359870000000004
349.19999999999993,-0.0380220000000006
349.4,-0.0390850000000004
349.5999999999999,-0.0387800000000004
349.79999999999995,-0.0368720000000006
349.9999999999999,-0.0369220000000005
350.19999999999993,-0.0367200000000003
350.4,-0.0358010000000006
350.5999999999999,-0.0343450000000005
350.79999999999995,-0.0361430000000004
350.9999999999999,-0.0373640000000006
351.19999999999993,-0.0373060000000005
351.4,-0.0385370000000007
351.5999999999999,-0.0382010000000003
351.79999999999995,-0.0379390000000006
351.9999999999999,-0.0384250000000006
352.19999999999993,-0.0378100000000003
352.4,-0.0362710000000006
352.5999999999999,-0.0359830000000003
352.79999999999995,-0.0353520000000004
352.9999999999999,-0.0343890000000004
353.19999999999993,-0.0344020000000004
353.4,-0.0327780000000004
353.5999999999999,-0.0320160000000004
353.79999999999995,-0.0321300000000004
353.9999999999999,-0.0332570000000003
354.19999999999993,-0.0329420000000006
354.4,-0.0349070000000004
354.5999999999999,-0.0374790000000007
354.79999999999995,-0.0386910000000004
354.9999999999999,-0.0390940000000004
355.19999999999993,-0.0415900000000006
355.4,-0.0422590000000004
355.5999999999999,-0.0405500000000005
355.79999999999995,-0.0391670000000003
355.9999999999999,-0.0349060000000003
356.19999999999993,-0.0311380000000003
356.4,-0.0288060000000003
356.5999999999999,-0.0283260000000002
356.79999999999995,-0.0281760000000006
356.9999999999999,-0.0324270000000006
357.19999999999993,-0.0352150000000004
357.4,-0.0386490000000003
357.5999999999999,-0.0404200000000005
357.79999999999995,-0.0420630000000006
357.9999999999999,-0.0409720000000004
358.19999999999993,-0.0394420000000006
358.4,-0.0374730000000003
358.5999999999999,-0.0357540000000002
358.79999999999995,-0.0337460000000007
358.9999999999999,-0.0327790000000005
359.19999999999993,-0.0322580000000005
359.4,-0.0313070000000004
359.5999999999999,-0.0308850000000004
359.79999999999995,-0.0311830000000004
359.9999999999999,-0.0313730000000003
360.19999999999993,-0.0324060000000003
360.4,-0.0340890000000007
360.5999999999999,-0.0364040000000005
360.8,-0.0382260000000003
360.9999999999999,-0.0392610000000006
361.19999999999993,-0.0402450000000005
361.4,-0.0392190000000005
361.5999999999999,-0.0375350000000005
361.8,-0.0374600000000007
361.9999999999999,-0.0402260000000005
362.19999999999993,-0.0414880000000006
362.4,-0.0443420000000003
362.5999999999999,-0.0453150000000004
362.8,-0.0444760000000004
362.9999999999999,-0.0414500000000006
363.19999999999993,-0.0405730000000006
363.4,-0.0381150000000003
363.5999999999999,-0.0372460000000005
363.8,-0.0366980000000003
363.9999999999999,-0.0359040000000003
364.19999999999993,-0.0329340000000004
364.4,-0.0313960000000004
364.5999999999999,-0.0311430000000005
364.8,-0.0304770000000003
364.9999999999999,-0.0306340000000004
365.19999999999993,-0.0319470000000006
365.4,-0.0345980000000003
365.5999999999999,-0.0344500000000005
365.8,-0.0357950000000006
365.9999999999999,-0.0343570000000004
366.19999999999993,-0.0345270000000006
366.4,-0.0342710000000003
366.5999999999999,-0.0370010000000005
366.8,-0.0390600000000005
366.9999999999999,-0.0417290000000005
367.19999999999993,-0.0425110000000006
367.4,-0.0434360000000006
367.5999999999999,-0.0431210000000006
367.8,-0.0406260000000004
367.9999999999999,-0.0399760000000006
368.19999999999993,-0.0421280000000003
368.4,-0.0444140000000006
368.5999999999999,-0.0459740000000006
368.8,-0.0472360000000007
368.9999999999999,-0.0472250000000005
369.19999999999993,-0.0458720000000005
369.4,-0.0432340000000004
369.5999999999999,-0.0408270000000006
369.8,-0.0392820000000004
369.9999999999999,-0.0393440000000007
370.19999999999993,-0.0377790000000004
370.4,-0.0353030000000003
370.5999999999999,-0.0352820000000004
370.8,-0.0377440000000004
370.9999999999999,-0.0387250000000003
371.19999999999993,-0.0404490000000006
371.4,-0.0426290000000006
371.5999999999999,-0.0437030000000007
371.8,-0.0420830000000003
371.9999999999999,-0.0420580000000003
372.19999999999993,-0.0400080000000007
372.4,-0.0399440000000006
372.5999999999999,-0.0408960000000004
372.8,-0.0403690000000005
372.9999999999999,-0.0360150000000003
373.19999999999993,-0.0345330000000005
373.4,-0.0322110000000006
373.5999999999999,-0.0306350000000006
373.8,-0.0321580000000003
373.9999999999999,-0.0354550000000006
374.19999999999993,-0.0380630000000006
374.4,-0.0414420000000004
374.5999999999999,-0.0421400000000002
374.8,-0.0407800000000007
374.9999999999999,-0.0393140000000005
375.19999999999993,-0.0365900000000003
375.4,-0.0325010000000003
375.5999999999999,-0.0300170000000004
375.8,-0.0296920000000007
375.9999999999999,-0.0307380000000003
376.19999999999993,-0.0334590000000005
376.4,-0.0368750000000006
376.5999999999999,-0.0380770000000003
376.8,-0.0372070000000004
376.9999999999999,-0.0352800000000006
377.19999999999993,-0.0331510000000006
377.4,-0.0320280000000003
377.5999999999999,-0.0315770000000004
377.8,-0.0320710000000006
377.9999999999999,-0.0325440000000005
378.19999999999993,-0.0339110000000006
378.4,-0.0334800000000004
378.5999999999999,-0.0325040000000003
378.8,-0.0337920000000004
378.9999999999999,-0.0371190000000005
379.19999999999993,-0.0393140000000005
379.4,-0.0409270000000003
379.5999999999999,-0.0430610000000006
379.8,-0.0409660000000005
379.9999999999999,-0.0388710000000003
380.19999999999993,-0.0346410000000005
380.4,-0.0307980000000003
380.5999999999999,-0.0291590000000003
380.8,-0.0293490000000002
380.9999999999999,-0.0296100000000003
381.19999999999993,-0.0321930000000003
381.4,-0.0350960000000006
381.5999999999999,-0.0369610000000006
381.8,-0.0387820000000003
381.9999999999999,-0.0399290000000003
382.19999999999993,-0.0396860000000005
382.4,-0.0399040000000003
382.5999999999999,-0.0384620000000004
382.8,-0.0367710000000003
382.9999999999999,-0.0347910000000006
383.19999999999993,-0.0346650000000003
383.4,-0.0346200000000003
383.5999999999999,-0.0364770000000005
383.8,-0.0389650000000005
383.9999999999999,-0.0405270000000004
384.19999999999993,-0.0413460000000003
384.4,-0.0414150000000006
384.5999999999999,-0.0412130000000003
384.8,-0.0412740000000004
384.9999999999999,-0.0412540000000003
385.19999999999993,-0.0400360000000006
385.4,-0.0376060000000006
385.5999999999999,-0.0349500000000007
385.8,-0.0328450000000004
385.9999999999999,-0.0319670000000003
386.19999999999993,-0.0313460000000005
386.4,-0.0325590000000004
386.5999999999999,-0.0332590000000005
386.8,-0.0327790000000005
386.9999999999999,-0.0322250000000003
387.19999999999993,-0.0310600000000005
387.4,-0.0300940000000005
387.5999999999999,-0.0308000000000006
387.8,-0.0327020000000004
387.9999999999999,-0.0332540000000003
388.19999999999993,-0.0338290000000003
388.4,-0.0335530000000003
388.5999999999999,-0.0341900000000006
388.8,-0.0343270000000006
388.9999999999999,-0.0346380000000006
389.19999999999993,-0.0358340000000003
389.4,-0.0388290000000006
389.5999999999999,-0.0380620000000004
389.8,-0.0369400000000004
389.9999999999999,-0.0348520000000003
390.19999999999993,-0.0344270000000004
390.4,-0.0340930000000003
390.5999999999999,-0.0362090000000003
390.8,-0.0371600000000005
390.9999999999999,-0.0375770000000006
391.19999999999993,-0.0381980000000004
391.4,-0.0374440000000007
391.5999999999999,-0.0367720000000004
391.8,-0.0373110000000003
391.9999999999999,-0.0410620000000006
392.19999999999993,-0.0413830000000006
392.4,-0.0416280000000006
392.5999999999999,-0.0418020000000005
392.8,-0.0406960000000005
392.9999999999999,-0.0379600000000004
393.19999999999993,-0.0363210000000004
393.4,-0.0340400000000005
393.5999999999999,-0.0313200000000004
393.8,-0.0310750000000004
393.9999999999999,-0.0302390000000003
394.19999999999993,-0.0294670000000003
394.4,-0.0310180000000004
394.5999999999999,-0.0339990000000005
394.8,-0.0370160000000003
394.9999999999999,-0.0402460000000006
395.19999999999993,-0.0424630000000005
395.4,-0.0414960000000004
395.5999999999999,-0.0393450000000004
395.8,-0.0344310000000005
395.9999999999999,-0.0318120000000003
396.19999999999993,-0.0323430000000004
396.4,-0.0357870000000004
396.5999999999999,-0.0366640000000004
396.8,-0.0391670000000003
396.9999999999999,-0.0388600000000005
397.19999999999993,-0.0369780000000004
397.4,-0.0343760000000004
397.5999999999999,-0.0343140000000006
397.8,-0.0337640000000005
397.9999999999999,-0.0342790000000006
398.19999999999993,-0.0357460000000005
398.4,-0.0372050000000006
398.5999999999999,-0.0389860000000004
398.8,-0.0418460000000004
398.9999999999999,-0.0427020000000006
399.19999999999993,-0.0440610000000005
399.4,-0.0449070000000006
399.5999999999999,-0.0443570000000006
399.8,-0.0425070000000005
399.9999999999999,-0.0422780000000004
400.19999999999993,-0.0415040000000006
400.4,-0.0393050000000005
400.5999999999999,-0.0390490000000003
400.8,-0.0419060000000004
400.9999999999999,-0.0456570000000007
401.19999999999993,-0.0480390000000006
401.4,-0.0507410000000003
401.5999999999999,-0.0509360000000005
401.8,-0.0496770000000004
401.9999999999999,-0.0483050000000004
402.19999999999993,-0.0465560000000007
402.4,-0.0461850000000003
402.5999999999999,-0.0447400000000004
402.8,-0.0430620000000003
402.9999999999999,-0.0419170000000006
403.19999999999993,-0.0408210000000006
403.4,-0.0387600000000003
403.5999999999999,-0.0385350000000004
403.8,-0.0369770000000007
403.9999999999999,-0.0353710000000004
404.19999999999993,-0.0368910000000006
404.4,-0.0391690000000006
404.5999999999999,-0.0405870000000003
404.8,-0.0415840000000002
404.9999999999999,-0.0407890000000006
405.19999999999993,-0.0370520000000005
405.4,-0.0334630000000006
405.5999999999999,-0.0327980000000005
405.8,-0.0317770000000003
405.9999999999999,-0.0346390000000003
406.19999999999993,-0.0401000000000006
406.4,-0.0436740000000006
406.5999999999999,-0.0465130000000004
406.8,-0.0507250000000003
406.9999999999999,-0.0516240000000003
407.19999999999993,-0.0480860000000005
407.4,-0.0452980000000002
407.5999999999999,-0.0402560000000002
407.8,-0.0366510000000004
407.9999999999999,-0.0345220000000003
408.19999999999993,-0.0343270000000006
408.4,-0.0352920000000005
408.5999999999999,-0.0374460000000005
408.8,-0.0382020000000005
408.9999999999999,-0.0385830000000004
409.19999999999993,-0.0410460000000005
409.4,-0.0422340000000005
409.5999999999999,-0.0418860000000003
409.8,-0.0425710000000005
409.9999999999999,-0.0424590000000004
410.19999999999993,-0.0395690000000006
410.4,-0.0379900000000006
410.5999999999999,-0.0380830000000003
410.8,-0.0385720000000007
410.9999999999999,-0.0400410000000004
411.19999999999993,-0.0425250000000003
411.4,-0.0441030000000006
411.5999999999999,-0.0466850000000005
411.8,-0.0470940000000004
411.9999999999999,-0.0452940000000006
412.19999999999993,-0.0443940000000004
412.4,-0.0443770000000003
412.5999999999999,-0.0435890000000003
412.8,-0.0434600000000005
412.9999999999999,-0.0454910000000006
413.19999999999993,-0.0460790000000006
413.4,-0.0457100000000005
413.5999999999999,-0.0452060000000003
413.8,-0.0435380000000003
413.9999999999999,-0.0405130000000006
414.19999999999993,-0.0404390000000005
414.4,-0.0409140000000003
414.5999999999999,-0.0387040000000005
414.8,-0.0385140000000006
414.9999999999999,-0.0399020000000005
415.19999999999993,-0.0394950000000005
415.4,-0.0383540000000004
415.5999999999999,-0.0393390000000004
415.8,-0.0399520000000004
415.9999999999999,-0.0401430000000004
416.19999999999993,-0.0388800000000006
416.4,-0.0394700000000005
416.5999999999999,-0.0404190000000004
416.8,-0.0425090000000003
416.9999999999999,-0.0438950000000004
417.19999999999993,-0.0479170000000004
417.4,-0.0487720000000004
417.5999999999999,-0.0488380000000003
417.8,-0.0480090000000004
417.9999999999999,-0.0492190000000003
418.19999999999993,-0.0480020000000003
418.4,-0.0483980000000006
418.5999999999999,-0.0496920000000002
418.8,-0.0484950000000004
418.9999999999999,-0.0460740000000003
419.19999999999993,-0.0438240000000003
419.4,-0.0422930000000003
419.5999999999999,-0.0394020000000003
419.8,-0.0391790000000003
419.9999999999999,-0.0389160000000003
420.19999999999993,-0.0400500000000003
420.4,-0.0406500000000003
420.5999999999999,-0.0407280000000005
420.8,-0.0380430000000004
420.9999999999999,-0.0346470000000005
421.19999999999993,-0.0331530000000004
421.4,-0.0332420000000004
421.5999999999999,-0.0351460000000005
421.8,-0.0386410000000005
421.9999999999999,-0.0426980000000005
422.19999999999993,-0.0452230000000004
422.4,-0.0467880000000007
422.5999999999999,-0.0463400000000007
422.8,-0.0463650000000006
422.9999999999999,-0.0444930000000005
423.19999999999993,-0.0411300000000003
423.4,-0.0388750000000004
423.5999999999999,-0.0392830000000006
423.8,-0.0401190000000006
423.9999999999999,-0.0429390000000005
424.19999999999993,-0.0462640000000003
424.4,-0.0469710000000005
424.5999999999999,-0.0458860000000003
424.8,-0.0443020000000005
424.9999999999999,-0.0408830000000004
425.19999999999993,-0.0386820000000005
425.4,-0.0397990000000003
425.5999999999999,-0.0424770000000003
425.8,-0.0416950000000007
425.9999999999999,-0.0444660000000003
426.19999999999993,-0.0462730000000006
426.4,-0.0448450000000004
426.5999999999999,-0.0414880000000006
426.8,-0.0415260000000006
426.9999999999999,-0.0392020000000004
427.19999999999993,-0.0374200000000004
427.4,-0.0378940000000005
427.5999999999999,-0.0387300000000006
427.8,-0.0411780000000003
427.9999999999999,-0.0432510000000005
428.19999999999993,-0.0444710000000005
428.4,-0.0436280000000004
428.5999999999999,-0.0438860000000005
428.8,-0.0422820000000006
428.9999999999999,-0.0409830000000006
429.19999999999993,-0.0415220000000005
429.4,-0.0426170000000003
429.5999999999999,-0.0437690000000006
429.8,-0.0435570000000002
429.9999999999999,-0.0446390000000005
430.19999999999993,-0.0440580000000006
430.4,-0.0435180000000006
430.5999999999999,-0.0415740000000006
430.8,-0.0410110000000005
430.9999999999999,-0.0409670000000006
431.19999999999993,-0.0423240000000006
431.4,-0.0444200000000005
431.5999999999999,-0.0464850000000005
431.8,-0.0487590000000004
431.9999999999999,-0.0501070000000005
432.19999999999993,-0.0496610000000004
432.4,-0.0477520000000004
432.5999999999999,-0.0450820000000002
432.8,-0.0429130000000004
432.9999999999999,-0.0426130000000006
433.19999999999993,-0.0432840000000003
433.4,-0.0446080000000006
433.5999999999999,-0.0470860000000006
433.8,-0.0484040000000005
433.9999999999999,-0.0480500000000003
434.19999999999993,-0.0458380000000007
434.4,-0.0432890000000005
434.5999999999999,-0.0428870000000003
434.8,-0.0430280000000005
434.9999999999999,-0.0417460000000002
435.19999999999993,-0.0418430000000005
435.4,-0.0446060000000003
435.5999999999999,-0.0458850000000006
435.8,-0.0466330000000003
435.9999999999999,-0.0492250000000002
436.19999999999993,-0.0505620000000006
436.4,-0.0478660000000004
436.5999999999999,-0.0426990000000007
436.8,-0.0391780000000006
436.9999999999999,-0.0361380000000006
437.19999999999993,-0.0339880000000003
437.4,-0.0352820000000004
437.5999999999999,-0.0382620000000004
437.8,-0.0416180000000006
437.9999999999999,-0.0432760000000005
438.19999999999993,-0.0442040000000005
438.4,-0.0448490000000005
438.5999999999999,-0.0452380000000003
438.8,-0.0444390000000005
438.9999999999999,-0.0433290000000003
439.19999999999993,-0.0458380000000007
439.4,-0.0462740000000003
439.5999999999999,-0.0476700000000005
439.8,-0.0493770000000006
439.9999999999999,-0.0505250000000003
440.19999999999993,-0.0477510000000003
440.4,-0.0466260000000007
440.5999999999999,-0.0434590000000003
440.8,-0.0411770000000006
440.9999999999999,-0.0403960000000003
441.19999999999993,-0.0415850000000004
441.4,-0.0426560000000004
441.5999999999999,-0.0471130000000004
441.8,-0.0497280000000004
441.9999999999999,-0.0497320000000005
442.19999999999993,-0.0491090000000005
442.4,-0.0478700000000005
442.5999999999999,-0.0458380000000007
442.8,-0.0432380000000005
442.9999999999999,-0.0424190000000006
443.19999999999993,-0.0400750000000003
443.4,-0.0380530000000005
443.5999999999999,-0.0359330000000004
443.8,-0.0362860000000004
443.9999999999999,-0.0377960000000006
444.19999999999993,-0.0412030000000003
444.4,-0.0438430000000003
444.5999999999999,-0.0475120000000006
444.8,-0.0496150000000006
444.9999999999999,-0.0511820000000002
445.19999999999993,-0.0516610000000006
445.4,-0.0501490000000006
445.5999999999999,-0.0475530000000006
445.8,-0.0450830000000004
445.9999999999999,-0.0442140000000006
446.19999999999993,-0.0443020000000005
446.4,-0.0475810000000005
446.5999999999999,-0.0494880000000006
446.8,-0.0493370000000004
446.9999999999999,-0.0463480000000005
447.19999999999993,-0.0447860000000006
447.4,-0.0417920000000004
447.5999999999999,-0.0391280000000007
447.8,-0.0394240000000003
447.9999999999999,-0.0398430000000002
448.19999999999993,-0.0399070000000003
448.4,-0.0411680000000003
448.5999999999999,-0.0448450000000004
448.8,-0.0470780000000004
448.9999999999999,-0.0512730000000005
449.19999999999993,-0.0531600000000005
449.4,-0.0546610000000002
449.5999999999999,-0.0530610000000004
449.8,-0.0519350000000002
449.9999999999999,-0.0474190000000005
450.19999999999993,-0.0443030000000006
450.4,-0.0409080000000003
450.5999999999999,-0.0402440000000003
450.8,-0.0400860000000005
450.9999999999999,-0.0423100000000005
451.19999999999993,-0.0442770000000005
451.4,-0.0472230000000006
451.5999999999999,-0.0487720000000004
451.8,-0.0488440000000003
451.9999999999999,-0.0469860000000004
452.19999999999993,-0.0461050000000002
452.4,-0.0442150000000003
452.5999999999999,-0.0429400000000006
452.8,-0.0430020000000004
452.9999999999999,-0.0438040000000006
453.19999999999993,-0.0446280000000003
453.4,-0.0461230000000005
453.5999999999999,-0.0477210000000005
453.8,-0.0478300000000007
453.9999999999999,-0.0503310000000003
454.19999999999993,-0.0514860000000005
454.4,-0.0529380000000005
454.5999999999999,-0.0511670000000004
454.8,-0.0496780000000005
454.9999999999999,-0.0471370000000006
455.19999999999993,-0.0464980000000005
455.4,-0.0460980000000006
455.5999999999999,-0.0472160000000005
455.8,-0.0513280000000007
455.9999999999999,-0.0552660000000004
456.19999999999993,-0.0563650000000004
456.4,-0.0537790000000004
456.5999999999999,-0.0507950000000003
456.8,-0.0450850000000007
456.9999999999999,-0.0405110000000004
457.19999999999993,-0.0367330000000003
457.4,-0.0371680000000003
457.5999999999999,-0.0382690000000005
457.8,-0.0404840000000006
457.9999999999999,-0.0418880000000005
458.19999999999993,-0.0433390000000004
458.4,-0.0432160000000005
458.5999999999999,-0.0427150000000007
458.8,-0.0413540000000005
458.9999999999999,-0.0404860000000004
459.19999999999993,-0.0410380000000003
459.4,-0.0428970000000004
459.5999999999999,-0.0471520000000005
459.8,-0.0519810000000005
459.9999999999999,-0.0536530000000006
460.19999999999993,-0.0545610000000005
460.4,-0.0535830000000006
460.5999999999999,-0.0507240000000006
460.8,-0.0490370000000006
460.9999999999999,-0.0500940000000005
461.19999999999993,-0.0507240000000006
461.4,-0.0514360000000007
461.5999999999999,-0.0525240000000004
461.8,-0.0518750000000003
461.9999999999999,-0.0521990000000003
462.19999999999993,-0.0530270000000006
462.4,-0.0535660000000004
462.5999999999999,-0.0524630000000003
462.8,-0.0512550000000007
462.9999999999999,-0.0477460000000005
463.19999999999993,-0.0430660000000004
463.4,-0.0388480000000006
463.5999999999999,-0.0368800000000004
463.8,-0.0358750000000003
463.9999999999999,-0.0374600000000007
464.19999999999993,-0.0407290000000006
464.4,-0.0443320000000007
464.5999999999999,-0.0473120000000006
464.8,-0.0495810000000003
464.9999999999999,-0.0488430000000006
465.19999999999993,-0.0472170000000002
465.4,-0.0456770000000004
465.5999999999999,-0.0429030000000003
465.8,-0.0396760000000004
465.9999999999999,-0.0392720000000004
466.19999999999993,-0.0390010000000002
466.4,-0.0387060000000003
466.5999999999999,-0.0392800000000006
466.8,-0.0401920000000006
466.9999999999999,-0.0403770000000003
467.19999999999993,-0.0408940000000006
467.4,-0.0415200000000006
467.5999999999999,-0.0427740000000005
467.8,-0.0452110000000005
467.9999999999999,-0.0452560000000006
468.19999999999993,-0.0450580000000004
468.4,-0.0453550000000007
468.5999999999999,-0.0460270000000004
468.8,-0.0434610000000006
468.9999999999999,-0.0420940000000005
469.19999999999993,-0.0411160000000005
469.4,-0.0406460000000006
469.5999999999999,-0.0405140000000003
469.8,-0.0423370000000002
469.9999999999999,-0.0431600000000003
470.19999999999993,-0.0436130000000005
470.4,-0.0451270000000003
470.5999999999999,-0.0460680000000004
470.8,-0.0459210000000003
470.9999999999999,-0.0481820000000006
471.19999999999993,-0.0500320000000003
471.4,-0.0504250000000006
471.5999999999999,-0.0508410000000005
471.8,-0.0515600000000007
471.9999999999999,-0.0490350000000003
472.19999999999993,-0.0467750000000006
472.4,-0.0417690000000003
472.5999999999999,-0.0380700000000007
472.8,-0.0371350000000005
472.9999999999999,-0.0391890000000003
473.19999999999993,-0.0432790000000005
473.4,-0.0473650000000005
473.5999999999999,-0.0482850000000003
473.8,-0.0466260000000007
473.9999999999999,-0.0465770000000005
474.19999999999993,-0.0459050000000003
474.4,-0.0465740000000005
474.5999999999999,-0.0484040000000005
474.8,-0.0515900000000004
474.9999999999999,-0.0520050000000003
475.19999999999993,-0.0502000000000006
475.4,-0.0482370000000003
475.5999999999999,-0.0472560000000004
475.8,-0.0482470000000003
475.9999999999999,-0.0489580000000007
476.19999999999993,-0.0471070000000004
476.4,-0.0482970000000007
476.5999999999999,-0.0494860000000003
476.8,-0.0468810000000003
476.9999999999999,-0.0449200000000002
477.19999999999993,-0.0456990000000003
477.4,-0.0455330000000007
477.5999999999999,-0.0447620000000004
477.8,-0.0455690000000004
477.9999999999999,-0.0454100000000003
478.19999999999993,-0.0461260000000005
478.4,-0.0458460000000005
478.5999999999999,-0.0457110000000007
478.8,-0.0452420000000004
478.9999999999999,-0.0460800000000003
479.19999999999993,-0.0468000000000006
479.4,-0.0472280000000004
479.5999999999999,-0.0483920000000006
479.8,-0.0503490000000006
479.9999999999999,-0.0518740000000006
480.19999999999993,-0.0530590000000006
480.4,-0.0532210000000006
480.5999999999999,-0.0515890000000003
480.8,-0.0489270000000003
480.9999999999999,-0.0482000000000004
481.19999999999993,-0.0478300000000007
481.4,-0.0494950000000002
481.5999999999999,-0.0521370000000005
481.8,-0.0539960000000006
481.9999999999999,-0.0538850000000006
482.19999999999993,-0.0537170000000006
482.4,-0.0523780000000004
482.5999999999999,-0.0525030000000006
482.8,-0.0558150000000003
482.9999999999999,-0.0572280000000007
483.19999999999993,-0.0574920000000003
483.4,-0.0575540000000005
483.5999999999999,-0.0547640000000004
483.8,-0.0500620000000004
483.9999999999999,-0.0475800000000004
484.19999999999993,-0.0442320000000004
484.4,-0.0411430000000003
484.5999999999999,-0.0396540000000005
484.8,-0.0402470000000003
484.9999999999999,-0.0399940000000005
485.19999999999993,-0.0425480000000004
485.4,-0.0456730000000003
485.5999999999999,-0.0479300000000004
485.8,-0.0478410000000004
485.9999999999999,-0.0484010000000005
486.19999999999993,-0.0480970000000007
486.4,-0.0472260000000006
486.5999999999999,-0.0500550000000004
486.8,-0.0533390000000006
486.9999999999999,-0.0566180000000007
487.19999999999993,-0.0565380000000006
487.4,-0.0545130000000004
487.5999999999999,-0.0506530000000005
487.8,-0.0482200000000005
487.9999999999999,-0.0453510000000005
488.19999999999993,-0.0461940000000002
488.4,-0.0485530000000005
488.5999999999999,-0.0493940000000003
488.8,-0.0463020000000002
488.9999999999999,-0.0445290000000007
489.19999999999993,-0.0418630000000006
489.4,-0.0402290000000005
489.5999999999999,-0.0395730000000003
489.8,-0.0415930000000006
489.9999999999999,-0.0426030000000006
490.19999999999993,-0.0440370000000003
490.4,-0.0459490000000006
490.5999999999999,-0.0490920000000003
490.8,-0.0517270000000005
490.9999999999999,-0.0545060000000003
491.19999999999993,-0.0547820000000003
491.4,-0.0534340000000006
491.5999999999999,-0.0501760000000004
491.8,-0.0480960000000005
491.9999999999999,-0.0467810000000006
492.19999999999993,-0.0470140000000003
492.4,-0.0467720000000007
492.5999999999999,-0.0462000000000006
492.8,-0.0456930000000004
492.9999999999999,-0.0435580000000004
493.19999999999993,-0.0436160000000005
493.4,-0.0469750000000006
493.5999999999999,-0.0513170000000005
493.8,-0.0539200000000006
493.9999999999999,-0.0573580000000006
494.19999999999993,-0.0571250000000005
494.4,-0.0554780000000003
494.5999999999999,-0.0541490000000006
494.8,-0.0516850000000004
494.9999999999999,-0.0504060000000006
495.19999999999993,-0.0509860000000004
495.4,-0.0492200000000004
495.5999999999999,-0.0476850000000004
495.8,-0.0491870000000003
495.9999999999999,-0.0496740000000004
496.19999999999993,-0.0502420000000003
496.4,-0.0514550000000006
496.5999999999999,-0.0514340000000004
496.8,-0.0505290000000004
496.9999999999999,-0.0499710000000006
497.19999999999993,-0.0516540000000005
497.4,-0.0528440000000003
497.5999999999999,-0.0529890000000006
497.8,-0.0530380000000003
497.9999999999999,-0.0532420000000004
498.19999999999993,-0.0539810000000007
498.4,-0.0571210000000004
498.5999999999999,-0.0587080000000006
498.8,-0.0592650000000003
498.9999999999999,-0.0607660000000005
499.19999999999993,-0.0607480000000006
499.4,-0.0590150000000004
499.5999999999999,-0.0591930000000004
499.8,-0.0582240000000005
499.9999999999999,-0.0544250000000006
500.19999999999993,-0.0512620000000003
500.4,-0.0489750000000004
500.5999999999999,-0.0493460000000003
500.8,-0.0493340000000004
500.9999999999999,-0.0500050000000005
501.19999999999993,-0.0495920000000005
501.4,-0.0524780000000006
501.5999999999999,-0.0536850000000006
501.8,-0.0561950000000006
501.9999999999999,-0.0586340000000005
502.19999999999993,-0.0613710000000002
502.4,-0.0601810000000004
502.5999999999999,-0.0591510000000004
502.8,-0.0581530000000003
502.9999999999999,-0.0573920000000005
503.19999999999993,-0.0552410000000005
503.4,-0.0534900000000004
503.5999999999999,-0.0502850000000005
503.8,-0.0495250000000004
503.9999999999999,-0.0486840000000006
504.19999999999993,-0.0489070000000007
504.4,-0.0458700000000003
504.5999999999999,-0.0456240000000005
504.8,-0.0428650000000003
504.9999999999999,-0.0428590000000004
505.19999999999993,-0.0445530000000005
505.4,-0.0491950000000005
505.5999999999999,-0.0520380000000004
505.8,-0.0538370000000005
505.9999999999999,-0.0518320000000005
506.19999999999993,-0.0485110000000004
506.4,-0.0468270000000003
506.5999999999999,-0.0457550000000006
506.8,-0.0457140000000007
506.9999999999999,-0.0481010000000003
507.19999999999993,-0.0495920000000005
507.4,-0.0513360000000004
507.5999999999999,-0.0531710000000003
507.8,-0.0549120000000002
507.9999999999999,-0.0562100000000005
508.19999999999993,-0.0579320000000005
508.4,-0.0569900000000003
508.5999999999999,-0.0543160000000004
508.8,-0.0532260000000004
508.9999999999999,-0.0521950000000006
509.19999999999993,-0.0504530000000005
509.4,-0.0513700000000003
509.5999999999999,-0.0539130000000005
509.8,-0.0559310000000006
509.9999999999999,-0.0564500000000003
510.19999999999993,-0.0566750000000007
510.4,-0.0548730000000006
510.5999999999999,-0.0514700000000005
510.8,-0.0490720000000006
510.9999999999998,-0.0472660000000004
511.1999999999998,-0.0456380000000002
511.3999999999999,-0.0453260000000006
511.5999999999999,-0.0464050000000004
511.8,-0.0465190000000004
511.9999999999998,-0.0468650000000003
512.1999999999998,-0.0474300000000003
512.3999999999999,-0.0470210000000004
512.5999999999999,-0.0483880000000005
512.8,-0.0494230000000004
512.9999999999998,-0.0512930000000007
513.1999999999998,-0.0528780000000006
513.3999999999999,-0.0535340000000004
513.5999999999999,-0.0527760000000006
513.8,-0.0504620000000004
513.9999999999998,-0.0487920000000006
514.1999999999998,-0.0461130000000005
514.3999999999999,-0.0451440000000005
514.5999999999999,-0.0444600000000003
514.8,-0.0456040000000004
514.9999999999998,-0.0480950000000004
515.1999999999998,-0.0506750000000004
515.3999999999999,-0.0523530000000005
515.5999999999999,-0.0525980000000005
515.8,-0.0533080000000003
515.9999999999998,-0.0522170000000006
516.1999999999998,-0.0553040000000004
516.3999999999999,-0.0579480000000005
516.5999999999999,-0.0598920000000005
516.8,-0.0611690000000004
516.9999999999998,-0.0612700000000003
517.1999999999998,-0.0581010000000006
517.3999999999999,-0.0550170000000003
517.5999999999999,-0.0531320000000006
517.8,-0.0513950000000003
517.9999999999998,-0.0510480000000006
518.1999999999998,-0.0507430000000006
518.3999999999999,-0.0504020000000005
518.5999999999999,-0.0511480000000004
518.8,-0.0518390000000006
518.9999999999998,-0.0510620000000003
519.1999999999998,-0.0513860000000003
519.3999999999999,-0.0520360000000006
519.5999999999999,-0.0515000000000003
519.8,-0.0496400000000005
519.9999999999998,-0.0492450000000004
520.1999999999998,-0.0491680000000003
520.3999999999999,-0.0494050000000005
520.5999999999999,-0.0491160000000006
520.8,-0.0499670000000005
520.9999999999998,-0.0495420000000006
521.1999999999998,-0.0486620000000006
521.3999999999999,-0.0488310000000002
521.5999999999999,-0.0497350000000005
521.8,-0.0519580000000003
521.9999999999998,-0.0533880000000004
522.1999999999998,-0.0527020000000004
522.3999999999999,-0.0508950000000005
522.5999999999999,-0.0505170000000005
522.8,-0.0493760000000005
522.9999999999998,-0.0502440000000006
523.1999999999998,-0.0521820000000006
523.3999999999999,-0.0536620000000005
523.5999999999999,-0.0527780000000004
523.8,-0.0540460000000004
523.9999999999998,-0.0550380000000005
524.1999999999998,-0.0552190000000005
524.3999999999999,-0.0542970000000004
524.5999999999999,-0.0545180000000002
524.8,-0.0536380000000003
524.9999999999998,-0.0531760000000005
525.1999999999998,-0.0535560000000003
525.3999999999999,-0.0554470000000004
525.5999999999999,-0.0584570000000006
525.8,-0.0593310000000006
525.9999999999998,-0.0597820000000006
526.1999999999998,-0.0596720000000003
526.3999999999999,-0.0598730000000005
526.5999999999999,-0.0579020000000003
526.8,-0.0581420000000005
526.9999999999998,-0.0581440000000004
527.1999999999998,-0.0578220000000007
527.3999999999999,-0.0568440000000003
527.5999999999999,-0.0570500000000007
527.8,-0.0550890000000006
527.9999999999998,-0.0514770000000006
528.1999999999998,-0.0498270000000005
528.3999999999999,-0.0489410000000005
528.5999999999999,-0.0478660000000004
528.8,-0.0486170000000005
528.9999999999998,-0.0498440000000006
529.1999999999998,-0.0502320000000007
529.3999999999999,-0.0511640000000004
529.5999999999999,-0.0523320000000007
529.8,-0.0513040000000004
529.9999999999998,-0.0504590000000004
530.1999999999998,-0.0490120000000007
530.3999999999999,-0.0468820000000005
530.5999999999999,-0.0463770000000005
530.8,-0.0486870000000005
530.9999999999998,-0.0509390000000005
531.1999999999998,-0.0537200000000006
531.3999999999999,-0.0569560000000004
531.5999999999999,-0.0572320000000003
531.8,-0.0577750000000003
531.9999999999998,-0.0593870000000005
532.1999999999998,-0.0604400000000007
532.3999999999999,-0.0595980000000007
532.5999999999999,-0.0601480000000003
532.8,-0.0583620000000006
532.9999999999998,-0.0571520000000003
533.1999999999998,-0.0577490000000007
533.3999999999999,-0.0586150000000005
533.5999999999999,-0.0579220000000004
533.8,-0.0572420000000004
533.9999999999998,-0.0561040000000003
534.1999999999998,-0.0526700000000004
534.3999999999999,-0.0492810000000005
534.5999999999999,-0.0466190000000006
534.8,-0.0447550000000003
534.9999999999998,-0.0436960000000006
535.1999999999998,-0.0452440000000002
535.3999999999999,-0.0489330000000003
535.5999999999999,-0.0511440000000003
535.8,-0.0554060000000005
535.9999999999998,-0.0569290000000006
536.1999999999998,-0.0590170000000003
536.3999999999999,-0.0602440000000004
536.5999999999999,-0.0602330000000006
536.8,-0.0579190000000005
536.9999999999998,-0.0570710000000005
537.1999999999998,-0.0544040000000003
537.3999999999999,-0.0517510000000003
537.5999999999999,-0.0522130000000005
537.8,-0.0508910000000004
537.9999999999998,-0.0498160000000003
538.1999999999998,-0.0504630000000005
538.3999999999999,-0.0521540000000007
538.5999999999999,-0.0536430000000005
538.8,-0.0547620000000006
538.9999999999998,-0.0552170000000002
539.1999999999998,-0.0542320000000007
539.3999999999999,-0.0540130000000003
539.5999999999999,-0.0549420000000004
539.8,-0.0585060000000003
539.9999999999998,-0.0622360000000004
540.1999999999998,-0.0649060000000005
540.3999999999999,-0.0649750000000004
540.5999999999999,-0.0628340000000005
540.8,-0.0594270000000003
540.9999999999998,-0.0567280000000005
541.1999999999998,-0.0569470000000005
541.3999999999999,-0.0572760000000003
541.5999999999999,-0.0563070000000003
541.8,-0.0551820000000002
541.9999999999998,-0.0542170000000004
542.1999999999998,-0.0520790000000004
542.3999999999999,-0.0514400000000003
542.5999999999999,-0.0534170000000004
542.8,-0.0556210000000003
542.9999999999998,-0.0574310000000006
543.1999999999998,-0.0596090000000004
543.3999999999999,-0.0603370000000005
543.5999999999999,-0.0593830000000004
543.8,-0.0590070000000007
543.9999999999998,-0.0578300000000004
544.1999999999998,-0.0553570000000003
544.3999999999999,-0.0542410000000006
544.5999999999999,-0.0536700000000003
544.8,-0.0530560000000006
544.9999999999998,-0.0530710000000005
545.1999999999998,-0.0532310000000006
545.3999999999999,-0.0523500000000005
545.5999999999999,-0.0530570000000003
545.8,-0.0544250000000006
545.9999999999998,-0.0552920000000005
546.1999999999998,-0.0581580000000006
546.3999999999999,-0.0613630000000005
546.5999999999999,-0.0627830000000004
546.8,-0.0636980000000004
546.9999999999998,-0.0623480000000005
547.1999999999998,-0.0597620000000005
547.3999999999999,-0.0562380000000004
547.5999999999999,-0.0553120000000006
547.8,-0.0531540000000005
547.9999999999998,-0.0541490000000006
548.1999999999998,-0.0542140000000004
548.3999999999999,-0.0539960000000006
548.5999999999999,-0.0523900000000003
548.8,-0.0531280000000005
548.9999999999998,-0.0530530000000006
549.1999999999998,-0.0527150000000005
549.3999999999999,-0.0537790000000004
549.5999999999999,-0.0543330000000006
549.8,-0.0550690000000004
549.9999999999998,-0.0557110000000005
550.1999999999998,-0.0552550000000007
550.3999999999999,-0.0537610000000006
550.5999999999999,-0.0545460000000006
550.8,-0.0550750000000004
550.9999999999998,-0.0557610000000003
551.1999999999998,-0.0587590000000006
551.3999999999999,-0.0621010000000006
551.5999999999999,-0.0642030000000004
551.8,-0.0654080000000005
551.9999999999998,-0.0638490000000007
552.1999999999998,-0.0613950000000005
552.3999999999999,-0.0586750000000004
552.5999999999999,-0.0564460000000006
552.8,-0.0524990000000005
552.9999999999998,-0.0525140000000003
553.1999999999998,-0.0524740000000005
553.3999999999999,-0.0540440000000006
553.5999999999999,-0.0537610000000006
553.8,-0.0534850000000006
553.9999999999998,-0.0534070000000004
554.1999999999998,-0.0535720000000004
554.3999999999999,-0.0522520000000006
554.5999999999999,-0.0507730000000004
554.8,-0.0518790000000004
554.9999999999998,-0.0565410000000006
555.1999999999998,-0.0598570000000004
555.3999999999999,-0.0632130000000006
555.5999999999999,-0.0668260000000007
555.8,-0.0694650000000005
555.9999999999998,-0.0652430000000006
556.1999999999998,-0.0606890000000004
556.3999999999999,-0.0556910000000003
556.5999999999999,-0.0523070000000003
556.8,-0.0509550000000005
556.9999999999998,-0.0514260000000006
557.1999999999998,-0.0533850000000004
557.3999999999999,-0.0573210000000004
557.5999999999999,-0.0595680000000005
557.8,-0.0583990000000005
557.9999999999998,-0.0559300000000004
558.1999999999998,-0.0538530000000005
558.3999999999999,-0.0511790000000003
558.5999999999999,-0.0510140000000003
558.8,-0.0523970000000004
558.9999999999998,-0.0542290000000003
559.1999999999998,-0.0546700000000006
559.3999999999999,-0.0548120000000005
559.5999999999999,-0.0546590000000004
559.8,-0.0556900000000006
559.9999999999998,-0.0573900000000007
560.1999999999998,-0.0583290000000005
560.3999999999999,-0.0582430000000004
560.5999999999999,-0.0580800000000003
560.8,-0.0570190000000003
560.9999999999998,-0.0565240000000004
561.1999999999998,-0.0568270000000006
561.3999999999999,-0.0582620000000004
561.5999999999999,-0.0574550000000004
561.8,-0.0550990000000006
561.9999999999998,-0.0546540000000006
562.1999999999998,-0.0522560000000003
562.3999999999999,-0.0501270000000007
562.5999999999999,-0.0499890000000005
562.8,-0.0507890000000004
562.9999999999998,-0.0512960000000006
563.1999999999998,-0.0537980000000004
563.3999999999999,-0.0548390000000003
563.5999999999999,-0.0533240000000003
563.8,-0.0516880000000004
563.9999999999998,-0.0492990000000004
564.1999999999998,-0.0484410000000004
564.3999999999999,-0.0491420000000006
564.5999999999999,-0.0521630000000006
564.8,-0.0546150000000005
564.9999999999998,-0.0557680000000004
565.1999999999998,-0.0558590000000003
565.3999999999999,-0.0572650000000005
565.5999999999999,-0.0586170000000003
565.8,-0.0583940000000007
565.9999999999998,-0.0575980000000004
566.1999999999998,-0.0572680000000005
566.3999999999999,-0.0544740000000003
566.5999999999999,-0.0505050000000006
566.8,-0.0508810000000004
566.9999999999998,-0.0532710000000005
567.1999999999998,-0.0556350000000005
567.3999999999999,-0.0566350000000004
567.5999999999999,-0.0575100000000006
567.8,-0.0549910000000006
567.9999999999998,-0.0509150000000007
568.1999999999998,-0.0479110000000004
568.3999999999999,-0.0479200000000004
568.5999999999999,-0.0484720000000002
568.8,-0.0514030000000005
568.9999999999998,-0.0546720000000005
569.1999999999998,-0.0563880000000005
569.3999999999999,-0.0560540000000004
569.5999999999999,-0.0548680000000003
569.8,-0.0528200000000005
569.9999999999998,-0.0524470000000003
570.1999999999998,-0.0534840000000005
570.3999999999999,-0.0551160000000003
570.5999999999999,-0.0560170000000006
570.8,-0.0556810000000003
570.9999999999998,-0.0541570000000004
571.1999999999998,-0.0530890000000003
571.3999999999999,-0.0524250000000003
571.5999999999999,-0.0523400000000005
571.8,-0.0536170000000004
571.9999999999998,-0.0550050000000004
572.1999999999998,-0.0558780000000003
572.3999999999999,-0.0578980000000006
572.5999999999999,-0.0598180000000003
572.7999999999997,-0.0606770000000005
572.9999999999998,-0.0596950000000005
573.1999999999998,-0.0589220000000003
573.3999999999999,-0.0548720000000004
573.5999999999999,-0.0542500000000005
573.7999999999997,-0.0554300000000003
573.9999999999998,-0.0580770000000003
574.1999999999998,-0.0607490000000003
574.3999999999999,-0.0654370000000006
574.5999999999999,-0.0653520000000003
574.7999999999997,-0.0644650000000006
574.9999999999998,-0.0617880000000004
575.1999999999998,-0.0594690000000004
575.3999999999999,-0.0565670000000007
575.5999999999999,-0.0582270000000004
575.7999999999997,-0.0588320000000006
575.9999999999998,-0.0620870000000004
576.1999999999998,-0.0635980000000007
576.3999999999999,-0.0646500000000003
576.5999999999999,-0.0610660000000002
576.7999999999997,-0.0599970000000005
576.9999999999998,-0.0566770000000005
577.1999999999998,-0.0544620000000004
577.3999999999999,-0.0525980000000005
577.5999999999999,-0.0542760000000006
577.7999999999997,-0.0543810000000006
577.9999999999998,-0.0580750000000005
578.1999999999998,-0.0595060000000007
578.3999999999999,-0.0613330000000003
578.5999999999999,-0.0613520000000002
578.7999999999997,-0.0618030000000007
578.9999999999998,-0.0589030000000003
579.1999999999998,-0.0581390000000006
579.3999999999999,-0.0575430000000003
579.5999999999999,-0.0567010000000003
579.7999999999997,-0.0555800000000004
579.9999999999998,-0.0554130000000006
580.1999999999998,-0.0537820000000004
580.3999999999999,-0.0541940000000003
580.5999999999999,-0.0554210000000003
580.7999999999997,-0.0567720000000004
580.9999999999998,-0.0579310000000004
581.1999999999998,-0.0609470000000005
581.3999999999999,-0.0605800000000003
581.5999999999999,-0.0590380000000005
581.7999999999997,-0.0586820000000005
581.9999999999998,-0.0574510000000003
582.1999999999998,-0.0554660000000004
582.3999999999999,-0.0547370000000007
582.5999999999999,-0.0545780000000006
582.7999999999997,-0.0542540000000006
582.9999999999998,-0.0561860000000002
583.1999999999998,-0.0572830000000004
583.3999999999999,-0.0576070000000004
583.5999999999999,-0.0594750000000003
583.7999999999997,-0.0588900000000003
583.9999999999998,-0.0580190000000007
584.1999999999998,-0.0571900000000002
584.3999999999999,-0.0571860000000006
584.5999999999999,-0.0558010000000006
584.7999999999997,-0.0547270000000006
584.9999999999998,-0.0522590000000007
585.1999999999998,-0.0516910000000003
585.3999999999999,-0.0527850000000005
585.5999999999999,-0.0562080000000007
585.7999999999997,-0.0585300000000006
585.9999999999998,-0.0625280000000003
586.1999999999998,-0.0646160000000004
586.3999999999999,-0.0635480000000003
586.5999999999999,-0.0613560000000004
586.7999999999997,-0.0616880000000006
586.9999999999998,-0.0593450000000004
587.1999999999998,-0.0562070000000005
587.3999999999999,-0.0553100000000004
587.5999999999999,-0.0529350000000006
587.7999999999997,-0.0508580000000002
587.9999999999998,-0.0515710000000004
588.1999999999998,-0.0537980000000004
588.3999999999999,-0.0550480000000006
588.5999999999999,-0.0568970000000006
588.7999999999997,-0.0562130000000005
588.9999999999998,-0.0545260000000005
589.1999999999998,-0.0544610000000003
589.3999999999999,-0.0562060000000004
589.5999999999999,-0.0575230000000006
589.7999999999997,-0.0594580000000006
589.9999999999998,-0.0603760000000006
590.1999999999998,-0.0605710000000003
590.3999999999999,-0.0598470000000004
590.5999999999999,-0.0587310000000003
590.7999999999997,-0.0569930000000002
590.9999999999998,-0.0567990000000007
591.1999999999998,-0.0559910000000005
591.3999999999999,-0.0538090000000006
591.5999999999999,-0.0529010000000003
591.7999999999997,-0.0550650000000003
591.9999999999998,-0.0562420000000005
592.1999999999998,-0.0573650000000003
592.3999999999999,-0.0603600000000006
592.5999999999999,-0.0635130000000003
592.7999999999997,-0.0641670000000003
592.9999999999998,-0.0647130000000006
593.1999999999998,-0.0637580000000004
593.3999999999999,-0.0614520000000005
593.5999999999999,-0.0602920000000004
593.7999999999997,-0.0604210000000007
593.9999999999998,-0.0615330000000002
594.1999999999998,-0.0640970000000002
594.3999999999999,-0.0663260000000005
594.5999999999999,-0.0665030000000004
594.7999999999997,-0.0657910000000003
594.9999999999998,-0.0635630000000007
595.1999999999998,-0.0601350000000007
595.3999999999999,-0.0561450000000003
595.5999999999999,-0.0551600000000003
595.7999999999997,-0.0543070000000005
595.9999999999998,-0.0555340000000006
596.1999999999998,-0.0569930000000002
596.3999999999999,-0.0578640000000003
596.5999999999999,-0.0556800000000006
596.7999999999997,-0.0566120000000003
596.9999999999998,-0.0569550000000003
597.1999999999998,-0.0583310000000003
597.3999999999999,-0.0628670000000006
597.5999999999999,-0.0679940000000005
597.7999999999997,-0.0685860000000007
597.9999999999998,-0.0666990000000002
